* Sea-Bird SBE 9 Data File:
* FileName = D:\COMISSOES\PIRATA_BR_X\Bruto\PIRX010.dat
* Software Version Seasave Win32 V 5.37d
* Temperature SN = 1721
* Conductivity SN = 1499
* Number of Bytes Per Scan = 18
* Number of Voltage Words = 0
* Number of Scans Averaged by the Deck Unit = 1
* System UpLoad Time = Apr 17 2008 00:56:37
** H40 
** NOc ANTARES 
** 196 
** PIRATA BR X 
**   010
**   04 06.34 N
**   038 00.80 W
**   17/04/2008 00:56
**   4589
** 09P46375-0881 
**   BRUNO
# nquan = 11
# nvalues = 1014                        
# units = specified
# name 0 = timeS: Time, Elapsed [seconds]
# name 1 = prDM: Pressure, Digiquartz [db]
# name 2 = t090C: Temperature [ITS-90, deg C]
# name 3 = t190C: Temperature, 2 [ITS-90, deg C]
# name 4 = c0S/m: Conductivity [S/m]
# name 5 = c1S/m: Conductivity, 2 [S/m]
# name 6 = potemp090C: Potential Temperature [ITS-90, deg C]
# name 7 = potemp190C: Potential Temperature, 2 [ITS-90, deg C]
# name 8 = sal00: Salinity [PSU]
# name 9 = sal11: Salinity, 2 [PSU]
# name 10 = flag:
# span 0 =      0.625,   1361.089       
# span 1 =      1.000,   1014.000       
# span 2 =   -22.9845,    98.4519       
# span 3 =     4.7086,    27.4590       
# span 4 =   3.293909,   5.680211       
# span 5 =   3.329909,   5.672502       
# span 6 =   -23.0630,    97.5481       
# span 7 =     4.6264,    27.4558       
# span 8 =     8.2849,   102.4913       
# span 9 =    34.5406,    36.4032       
# span 10 = 0.0000e+00, 0.0000e+00      
# interval = decibars: 1                
# start_time = Apr 17 2008 00:56:37
# bad_flag = -9.990e-29
# sensor 0 = Frequency  0  temperature, primary, 1721, 03/04/2007
# sensor 1 = Frequency  1  conductivity, primary, 1499, 03/07/2007, cpcor = -9.5700e-08
# sensor 2 = Frequency  2  pressure, 104455, 19/02/2007
# sensor 3 = Frequency  3  temperature, secondary, 2500, 06/01/2006
# sensor 4 = Frequency  4  conductivity, secondary, 1497, 21/01/2005, cpcor = -9.5700e-08
# datcnv_date = Jan 18 2011 09:53:05, 7.18
# datcnv_in = X:\piratax\raw_data\pirx010.dat X:\piratax\raw_data\PIRX010.con
# datcnv_skipover = 1
# alignctd_date = Jan 18 2011 09:53:12, 7.18
# alignctd_in = X:\piratax\proc_data\pirx010.cnv
# alignctd_adv = c0S/m -0.030, c1S/m -0.020                                                                                                                                                                                          
# wildedit_date = Jan 18 2011 09:53:16, 7.18
# wildedit_in = X:\piratax\proc_data\pirx010.cnv
# wildedit_pass1_nstd = 2.0
# wildedit_pass2_nstd = 20.0
# wildedit_pass2_mindelta = 0.000e+000
# wildedit_npoint = 3000
# wildedit_vars = prDM t090C t190C c0S/m c1S/m
# wildedit_excl_bad_scans = yes
# filter_date = Jan 18 2011 09:53:22, 7.18
# filter_in = X:\piratax\proc_data\pirx010.cnv
# filter_low_pass_tc_A = 0.030
# filter_low_pass_tc_B = 0.150
# filter_low_pass_A_vars = t090C t190C c0S/m c1S/m
# filter_low_pass_B_vars = prDM
# celltm_date = Jan 18 2011 09:53:28, 7.18
# celltm_in = X:\piratax\proc_data\pirx010.cnv
# celltm_alpha = 0.0300, 0.0300
# celltm_tau = 7.0000, 7.0000
# celltm_temp_sensor_use_for_cond = primary, secondary
# Derive_date = Jan 18 2011 09:53:53, 7.18
# Derive_in = X:\piratax\proc_data\pirx010.cnv X:\piratax\raw_data\PIRX010.con
# loopedit_date = Jan 18 2011 09:53:58, 7.18
# loopedit_in = X:\piratax\proc_data\pirx010.cnv
# loopedit_minVelocity = 0.250                                                                                            
# loopedit_surfaceSoak: minDepth = 5.0, maxDepth = 20, useDeckPress = 1                                                   
# loopedit_excl_bad_scans = yes
# binavg_date = Jan 18 2011 09:54:07, 7.18
# binavg_in = X:\piratax\proc_data\pirx010.cnv
# binavg_bintype = decibars
# binavg_binsize = 1
# binavg_excl_bad_scans = no
# binavg_skipover = 0
# binavg_surface_bin = no, min = 0.000, max = 0.000, value = 0.000
# Derive_date = Jan 18 2011 09:54:17, 7.18
# Derive_in = X:\piratax\proc_data\pirx010.cnv X:\piratax\raw_data\PIRX010.con
# strip_date = Jan 18 2011 09:54:19, 7.18
# strip_in = X:\piratax\proc_data\pirx010.cnv
# split_date = Jan 18 2011 09:54:25, 7.18
# split_in = X:\piratax\proc_data\pirx010.cnv
# split_excl_bad_scans = yes
# file_type = ascii
*END*
      0.625      1.000    27.4365    27.4433   5.607727   5.664277    27.4363    27.4431    35.3159    35.7124 0.0000e+00
     14.147      2.000    27.4461    27.4520   5.680211   5.665232    27.4457    27.4516    35.8232    35.7122 0.0000e+00
     42.245      3.000    27.4506    27.4565   5.667110   5.666194    27.4499    27.4558    35.7264    35.7153 0.0000e+00
     44.505      4.000    27.4499    27.4559   5.667067   5.666004    27.4490    27.4550    35.7262    35.7141 0.0000e+00
     45.378      5.000    27.4492    27.4552   5.666856   5.665798    27.4481    27.4540    35.7249    35.7129 0.0000e+00
     46.394      6.000    27.4482    27.4542   5.666660   5.665561    27.4468    27.4528    35.7240    35.7116 0.0000e+00
     47.998      7.000    27.4475    27.4533   5.666537   5.665440    27.4459    27.4516    35.7234    35.7112 0.0000e+00
     49.570      8.000    27.4465    27.4527   5.666462   5.665422    27.4446    27.4508    35.7233    35.7112 0.0000e+00
     50.531      9.000    27.4474    27.4534   5.666620   5.665565    27.4453    27.4513    35.7234    35.7113 0.0000e+00
     51.315     10.000    27.4481    27.4542   5.666716   5.665696    27.4458    27.4519    35.7233    35.7114 0.0000e+00
     52.030     11.000    27.4474    27.4537   5.666718   5.665718    27.4448    27.4512    35.7236    35.7116 0.0000e+00
     52.811     12.000    27.4477    27.4536   5.666782   5.665732    27.4449    27.4509    35.7235    35.7114 0.0000e+00
     54.222     13.000    27.4482    27.4542   5.666901   5.665853    27.4451    27.4512    35.7236    35.7116 0.0000e+00
     55.959     14.000    27.4491    27.4552   5.666968   5.665921    27.4459    27.4520    35.7231    35.7110 0.0000e+00
     56.733     15.000    27.4506    27.4564   5.668839   5.667461    27.4471    27.4529    35.7349    35.7207 0.0000e+00
     57.346     16.000    27.4511    27.4571   5.670304   5.669166    27.4473    27.4534    35.7447    35.7320 0.0000e+00
     57.937     17.000    27.4518    27.4578   5.670247   5.669153    27.4478    27.4539    35.7434    35.7310 0.0000e+00
     60.389     18.000    27.4509    27.4569   5.671175   5.670183    27.4467    27.4527    35.7504    35.7387 0.0000e+00
     62.009     19.000    27.4517    27.4579   5.671248   5.669998    27.4473    27.4535    35.7500    35.7364 0.0000e+00
     62.492     20.000    27.4522    27.4584   5.671228   5.670017    27.4476    27.4537    35.7491    35.7358 0.0000e+00
     62.911     21.000    27.4528    27.4590   5.670989   5.669888    27.4479    27.4541    35.7467    35.7341 0.0000e+00
     63.332     22.000    27.4516    27.4581   5.671360   5.670208    27.4464    27.4530    35.7500    35.7367 0.0000e+00
     65.849     23.000    27.4485    27.4543   5.671818   5.670834    27.4431    27.4489    35.7553    35.7439 0.0000e+00
     68.524     24.000    27.4449    27.4502   5.672320   5.671291    27.4393    27.4446    35.7613    35.7499 0.0000e+00
     71.850     25.000    27.4437    27.4501   5.672397   5.671339    27.4378    27.4443    35.7625    35.7500 0.0000e+00
     75.312     26.000    27.4429    27.4495   5.672408   5.671326    27.4369    27.4435    35.7628    35.7501 0.0000e+00
     77.340     27.000    27.4364    27.4422   5.672554   5.671515    27.4301    27.4359    35.7686    35.7567 0.0000e+00
     79.276     28.000    27.4339    27.4389   5.672676   5.671628    27.4274    27.4324    35.7710    35.7597 0.0000e+00
     81.145     29.000    27.4253    27.4309   5.672838   5.671803    27.4185    27.4242    35.7785    35.7668 0.0000e+00
     83.990     30.000    27.4114    27.4162   5.673176   5.672174    27.4045    27.4092    35.7912    35.7804 0.0000e+00
     84.755     31.000    27.4043    27.4108   5.673244   5.672213    27.3971    27.4036    35.7968    35.7845 0.0000e+00
     85.522     32.000    27.4040    27.4101   5.673518   5.672502    27.3966    27.4027    35.7987    35.7868 0.0000e+00
     88.986     33.000    27.4010    27.4073   5.673249   5.672209    27.3933    27.3996    35.7988    35.7866 0.0000e+00
     90.958     34.000    27.3981    27.4042   5.672932   5.671878    27.3902    27.3963    35.7985    35.7863 0.0000e+00
     91.721     35.000    27.3960    27.4021   5.672769   5.671722    27.3879    27.3939    35.7986    35.7865 0.0000e+00
     95.756     36.000    27.3952    27.4012   5.672734   5.671689    27.3868    27.3928    35.7986    35.7866 0.0000e+00
     97.429     37.000    27.3937    27.3996   5.672848   5.671782    27.3851    27.3910    35.8003    35.7882 0.0000e+00
     98.868     38.000    27.3764    27.3823   5.671891   5.670792    27.3676    27.3734    35.8064    35.7941 0.0000e+00
    100.356     39.000    27.2958    27.3029   5.668968   5.667831    27.2868    27.2938    35.8472    35.8337 0.0000e+00
    103.064     40.000    27.1237    27.1295   5.663217   5.662051    27.1144    27.1203    35.9385    35.9257 0.0000e+00
    106.542     41.000    26.9626    26.9713   5.658011   5.656748    26.9532    26.9619    36.0256    36.0099 0.0000e+00
    107.240     42.000    26.6479    26.6616   5.641325   5.639484    26.6383    26.6521    36.1505    36.1264 0.0000e+00
    107.901     43.000    26.3750    26.3970   5.621211   5.619535    26.3652    26.3872    36.2186    36.1892 0.0000e+00
    108.682     44.000    25.9358    25.9513   5.585758   5.584176    25.9260    25.9415    36.3068    36.2829 0.0000e+00
    112.062     45.000    25.8210    25.8269   5.575087   5.574091    25.8110    25.8169    36.3194    36.3074 0.0000e+00
    113.046     46.000    25.8024    25.8105   5.573295   5.572311    25.7921    25.8003    36.3207    36.3070 0.0000e+00
    115.894     47.000    25.7900    25.7968   5.572270   5.571306    25.7795    25.7863    36.3227    36.3102 0.0000e+00
    117.431     48.000    25.7494    25.7589   5.568382   5.567253    25.7387    25.7482    36.3261    36.3103 0.0000e+00
    118.014     49.000    25.6410    25.6499   5.557227   5.555474    25.6301    25.6390    36.3301    36.3101 0.0000e+00
    119.821     50.000    25.4406    25.4467   5.535780   5.534472    25.4295    25.4356    36.3315    36.3169 0.0000e+00
    122.040     51.000    25.2774    25.2925   5.517772   5.516855    25.2662    25.2813    36.3284    36.3095 0.0000e+00
    122.871     52.000    24.9462    24.9605   5.482579   5.480782    24.9349    24.9492    36.3322    36.3072 0.0000e+00
    124.838     53.000    24.7947    24.8018   5.466720   5.465590    24.7832    24.7903    36.3354    36.3212 0.0000e+00
    127.323     54.000    24.7345    24.7424   5.461318   5.460351    24.7228    24.7307    36.3432    36.3296 0.0000e+00
    128.069     55.000    24.6941    24.7018   5.458081   5.456921    24.6822    24.6899    36.3513    36.3363 0.0000e+00
    128.851     56.000    24.6248    24.6300   5.451892   5.450391    24.6127    24.6179    36.3605    36.3450 0.0000e+00
    131.109     57.000    24.5066    24.5137   5.441978   5.441034    24.4944    24.5014    36.3814    36.3686 0.0000e+00
    133.184     58.000    24.4924    24.4997   5.440951   5.440042    24.4800    24.4873    36.3849    36.3721 0.0000e+00
    134.082     59.000    24.4617    24.4692   5.438550   5.437426    24.4491    24.4566    36.3914    36.3768 0.0000e+00
    135.165     60.000    24.3244    24.3369   5.424762   5.423906    24.3116    24.3241    36.3986    36.3820 0.0000e+00
    137.150     61.000    24.0119    24.0184   5.393994   5.392492    23.9990    24.0055    36.4199    36.4032 0.0000e+00
    139.564     62.000    23.5658    23.5869   5.344704   5.343722    23.5528    23.5739    36.4092    36.3842 0.0000e+00
    140.343     63.000    23.1143    23.1318   5.293436   5.291606    23.1013    23.1188    36.3864    36.3577 0.0000e+00
    141.085     64.000    22.9155    22.9252   5.269762   5.268625    22.9024    22.9121    36.3672    36.3503 0.0000e+00
    141.963     65.000    22.8114    22.8204   5.259224   5.258010    22.7981    22.8071    36.3713    36.3544 0.0000e+00
    143.839     66.000    22.5472    22.5543   5.229344   5.228043    22.5338    22.5410    36.3577    36.3415 0.0000e+00
    147.165     67.000    22.3186    22.3310   5.203500   5.202417    22.3051    22.3176    36.3455    36.3266 0.0000e+00
    148.143     68.000    21.8833    21.9094   5.153772   5.153368    21.8699    21.8959    36.3176    36.2924 0.0000e+00
    149.255     69.000    20.8729    20.9239   5.039009   5.037087    20.8597    20.9106    36.2531    36.1942 0.0000e+00
    150.700     70.000    19.8420    19.8419   4.920889   4.917641    19.8290    19.8289    36.1708    36.1441 0.0000e+00
    152.291     71.000    19.5595    19.5656   4.887737   4.886508    19.5465    19.5526    36.1399    36.1244 0.0000e+00
    153.311     72.000    19.4807    19.4906   4.878402   4.877607    19.4675    19.4775    36.1301    36.1149 0.0000e+00
    154.101     73.000    19.4079    19.4170   4.870190   4.869131    19.3947    19.4038    36.1244    36.1077 0.0000e+00
    157.046     74.000    19.3391    19.3462   4.862795   4.862035    19.3256    19.3328    36.1221    36.1096 0.0000e+00
    159.140     75.000    19.1495    19.1649   4.841424   4.840088    19.1360    19.1514    36.1078    36.0831 0.0000e+00
    159.989     76.000    18.9326    18.9440   4.816571   4.815834    18.9190    18.9304    36.0876    36.0715 0.0000e+00
    161.168     77.000    18.8371    18.8432   4.805087   4.803891    18.8234    18.8295    36.0738    36.0584 0.0000e+00
    163.166     78.000    18.6738    18.6821   4.786163   4.785187    18.6600    18.6683    36.0563    36.0408 0.0000e+00
    165.074     79.000    18.4649    18.4725   4.762053   4.760921    18.4510    18.4586    36.0345    36.0182 0.0000e+00
    166.130     80.000    18.3533    18.3647   4.749040   4.748386    18.3393    18.3507    36.0214    36.0058 0.0000e+00
    168.703     81.000    18.2121    18.2175   4.732850   4.731937    18.1980    18.2035    36.0070    35.9944 0.0000e+00
    170.334     82.000    18.1679    18.1779   4.728088   4.727268    18.1536    18.1636    36.0048    35.9890 0.0000e+00
    170.909     83.000    18.1017    18.1120   4.720616   4.719712    18.0874    18.0976    35.9987    35.9819 0.0000e+00
    171.456     84.000    17.9840    17.9932   4.706983   4.705073    17.9695    17.9787    35.9852    35.9608 0.0000e+00
    173.878     85.000    17.7601    17.7632   4.680724   4.679276    17.7456    17.7487    35.9567    35.9415 0.0000e+00
    176.993     86.000    17.5010    17.5166   4.651537   4.649224    17.4864    17.5021    35.9334    35.8996 0.0000e+00
    177.458     87.000    17.3033    17.3206   4.627952   4.626530    17.2887    17.3060    35.9038    35.8759 0.0000e+00
    177.938     88.000    17.1672    17.1788   4.611508   4.610126    17.1525    17.1641    35.8810    35.8587 0.0000e+00
    180.368     89.000    17.0637    17.0827   4.598804   4.599000    17.0489    17.0679    35.8618    35.8466 0.0000e+00
    182.676     90.000    16.8609    16.8714   4.576396   4.574096    16.8460    16.8565    35.8459    35.8164 0.0000e+00
    183.160     91.000    16.6222    16.6264   4.548415   4.545306    16.6074    16.6116    35.8126    35.7814 0.0000e+00
    185.345     92.000    16.2709    16.2794   4.507247   4.506141    16.2561    16.2646    35.7626    35.7451 0.0000e+00
    187.995     93.000    15.9205    15.9307   4.466660   4.465017    15.9058    15.9160    35.7155    35.6915 0.0000e+00
    188.760     94.000    15.5989    15.6151   4.429749   4.427944    15.5843    15.6004    35.6739    35.6430 0.0000e+00
    191.198     95.000    15.2665    15.2744   4.391272   4.390315    15.2519    15.2598    35.6268    35.6109 0.0000e+00
    193.645     96.000    15.0293    15.0478   4.365826   4.363139    15.0147    15.0332    35.6105    35.5691 0.0000e+00
    194.092     97.000    14.8829    14.8936   4.347408   4.346581    14.8682    14.8790    35.5752    35.5578 0.0000e+00
    194.527     98.000    14.8030    14.8198   4.338608   4.337403    14.7883    14.8051    35.5670    35.5406 0.0000e+00
    194.996     99.000    14.6668    14.6804   4.322521   4.321523    14.6520    14.6656    35.5434    35.5217 0.0000e+00
    198.392    100.000    14.5719    14.5525   4.311426   4.307489    14.5570    14.5377    35.5276    35.5090 0.0000e+00
    200.924    101.000    14.3824    14.3878   4.290106   4.288082    14.3676    14.3729    35.5039    35.4802 0.0000e+00
    201.951    102.000    14.3197    14.3279   4.282546   4.281971    14.3047    14.3130    35.4910    35.4781 0.0000e+00
    203.467    103.000    14.2946    14.3022   4.279634   4.279004    14.2795    14.2870    35.4867    35.4738 0.0000e+00
    207.075    104.000    14.2477    14.2540   4.274437   4.273861    14.2324    14.2388    35.4811    35.4699 0.0000e+00
    209.432    105.000    14.2512    14.2589   4.275021   4.274562    14.2359    14.2436    35.4828    35.4715 0.0000e+00
    210.260    106.000    14.2473    14.2544   4.274636   4.274118    14.2318    14.2389    35.4825    35.4711 0.0000e+00
    211.074    107.000    14.2406    14.2477   4.273918   4.273387    14.2249    14.2320    35.4815    35.4701 0.0000e+00
    211.986    108.000    14.2240    14.2311   4.272028   4.271420    14.2082    14.2153    35.4789    35.4666 0.0000e+00
    215.556    109.000    14.1992    14.2033   4.269126   4.268299    14.1832    14.1874    35.4743    35.4628 0.0000e+00
    217.931    110.000    14.1820    14.1884   4.267113   4.266488    14.1659    14.1724    35.4709    35.4592 0.0000e+00
    218.916    111.000    14.1511    14.1595   4.263594   4.263105    14.1349    14.1433    35.4662    35.4539 0.0000e+00
    219.636    112.000    14.1233    14.1308   4.260396   4.259722    14.1070    14.1144    35.4616    35.4484 0.0000e+00
    222.398    113.000    14.0342    14.0366   4.249784   4.248629    14.0179    14.0202    35.4442    35.4313 0.0000e+00
    224.985    114.000    13.9714    13.9787   4.242561   4.241991    13.9549    13.9623    35.4343    35.4222 0.0000e+00
    226.420    115.000    13.9395    13.9464   4.238992   4.238431    13.9230    13.9298    35.4299    35.4183 0.0000e+00
    227.690    116.000    13.9314    13.9380   4.238119   4.237586    13.9147    13.9212    35.4288    35.4178 0.0000e+00
    228.432    117.000    13.9263    13.9327   4.237612   4.236999    13.9095    13.9158    35.4283    35.4167 0.0000e+00
    229.115    118.000    13.9108    13.9164   4.235798   4.235051    13.8938    13.8994    35.4253    35.4131 0.0000e+00
    232.291    119.000    13.8916    13.8985   4.233605   4.233066    13.8745    13.8814    35.4220    35.4106 0.0000e+00
    235.346    120.000    13.8329    13.8400   4.226807   4.225619    13.8157    13.8227    35.4121    35.3945 0.0000e+00
    236.173    121.000    13.7149    13.7247   4.213036   4.212369    13.6976    13.7074    35.3915    35.3762 0.0000e+00
    237.073    122.000    13.5243    13.5346   4.191542   4.190396    13.5071    13.5174    35.3650    35.3447 0.0000e+00
    239.952    123.000    13.3550    13.3594   4.171980   4.171012    13.3378    13.3421    35.3366    35.3234 0.0000e+00
    243.257    124.000    13.3051    13.3127   4.166411   4.165843    13.2878    13.2954    35.3298    35.3173 0.0000e+00
    243.902    125.000    13.2753    13.2817   4.162898   4.162171    13.2578    13.2643    35.3237    35.3109 0.0000e+00
    245.761    126.000    13.2595    13.2651   4.161041   4.160408    13.2419    13.2475    35.3203    35.3091 0.0000e+00
    247.385    127.000    13.2079    13.2150   4.155340   4.154643    13.1902    13.1974    35.3137    35.3005 0.0000e+00
    250.597    128.000    13.1500    13.1567   4.148921   4.148490    13.1322    13.1390    35.3061    35.2957 0.0000e+00
    252.511    129.000    13.1445    13.1511   4.148378   4.147853    13.1266    13.1332    35.3056    35.2945 0.0000e+00
    253.480    130.000    13.1332    13.1397   4.147142   4.146617    13.1152    13.1217    35.3039    35.2929 0.0000e+00
    254.516    131.000    13.1245    13.1305   4.146204   4.145664    13.1063    13.1124    35.3027    35.2919 0.0000e+00
    255.706    132.000    13.1199    13.1258   4.145737   4.145199    13.1016    13.1075    35.3021    35.2915 0.0000e+00
    257.560    133.000    13.1139    13.1195   4.145107   4.144547    13.0954    13.1010    35.3013    35.2907 0.0000e+00
    259.130    134.000    13.1043    13.1102   4.144094   4.143562    13.0858    13.0917    35.3001    35.2895 0.0000e+00
    262.784    135.000    13.0971    13.1035   4.143364   4.142879    13.0784    13.0848    35.2994    35.2888 0.0000e+00
    264.061    136.000    13.0878    13.0936   4.142423   4.141853    13.0690    13.0748    35.2987    35.2878 0.0000e+00
    264.567    137.000    13.0794    13.0854   4.141554   4.140941    13.0605    13.0664    35.2978    35.2864 0.0000e+00
    265.821    138.000    13.0628    13.0684   4.139659   4.139069    13.0438    13.0493    35.2947    35.2839 0.0000e+00
    268.212    139.000    13.0489    13.0550   4.138125   4.137574    13.0297    13.0358    35.2926    35.2817 0.0000e+00
    270.986    140.000    13.0344    13.0399   4.136522   4.135982    13.0151    13.0206    35.2905    35.2802 0.0000e+00
    272.955    141.000    13.0211    13.0271   4.135169   4.134547    13.0017    13.0077    35.2895    35.2780 0.0000e+00
    273.576    142.000    12.9665    12.9717   4.129267   4.128054    12.9470    12.9522    35.2836    35.2671 0.0000e+00
    274.327    143.000    12.9000    12.9063   4.121730   4.120986    12.8804    12.8867    35.2731    35.2601 0.0000e+00
    276.799    144.000    12.8632    12.8685   4.117459   4.116927    12.8436    12.8488    35.2661    35.2561 0.0000e+00
    279.515    145.000    12.8344    12.8394   4.114261   4.113632    12.8146    12.8196    35.2619    35.2512 0.0000e+00
    281.677    146.000    12.8044    12.8107   4.110977   4.110388    12.7845    12.7908    35.2581    35.2465 0.0000e+00
    282.324    147.000    12.7782    12.7835   4.108142   4.107427    12.7582    12.7635    35.2549    35.2431 0.0000e+00
    282.985    148.000    12.7601    12.7654   4.106085   4.105422    12.7400    12.7452    35.2516    35.2404 0.0000e+00
    286.137    149.000    12.7321    12.7380   4.103032   4.102398    12.7119    12.7178    35.2481    35.2364 0.0000e+00
    287.414    150.000    12.6990    12.7050   4.099457   4.098790    12.6787    12.6847    35.2442    35.2322 0.0000e+00
    287.876    151.000    12.6833    12.6890   4.097661   4.097056    12.6629    12.6686    35.2412    35.2300 0.0000e+00
    290.646    152.000    12.6693    12.6745   4.096035   4.095485    12.6487    12.6539    35.2382    35.2281 0.0000e+00
    294.003    153.000    12.6537    12.6595   4.094419   4.093772    12.6331    12.6388    35.2368    35.2252 0.0000e+00
    294.573    154.000    12.6185    12.6243   4.090580   4.089908    12.5977    12.6035    35.2324    35.2205 0.0000e+00
    295.259    155.000    12.5931    12.5988   4.087707   4.087122    12.5722    12.5779    35.2281    35.2171 0.0000e+00
    298.925    156.000    12.5653    12.5700   4.084631   4.084061    12.5443    12.5490    35.2241    35.2141 0.0000e+00
    301.253    157.000    12.5546    12.5595   4.083500   4.082922    12.5335    12.5384    35.2227    35.2125 0.0000e+00
    302.267    158.000    12.5448    12.5502   4.082426   4.081913    12.5235    12.5289    35.2211    35.2111 0.0000e+00
    303.068    159.000    12.5319    12.5376   4.081059   4.080501    12.5105    12.5162    35.2196    35.2089 0.0000e+00
    303.750    160.000    12.5136    12.5188   4.079044   4.078427    12.4921    12.4973    35.2168    35.2060 0.0000e+00
    305.894    161.000    12.4903    12.4953   4.076456   4.075878    12.4687    12.4737    35.2132    35.2030 0.0000e+00
    309.277    162.000    12.4766    12.4814   4.075013   4.074381    12.4549    12.4597    35.2117    35.2011 0.0000e+00
    310.944    163.000    12.4651    12.4699   4.073702   4.073142    12.4433    12.4481    35.2094    35.1995 0.0000e+00
    313.732    164.000    12.4539    12.4593   4.072486   4.071994    12.4319    12.4374    35.2077    35.1979 0.0000e+00
    314.339    165.000    12.4442    12.4495   4.071448   4.070934    12.4221    12.4275    35.2064    35.1964 0.0000e+00
    314.922    166.000    12.4271    12.4321   4.069642   4.068944    12.4049    12.4099    35.2045    35.1931 0.0000e+00
    315.518    167.000    12.3964    12.4019   4.066234   4.065599    12.3741    12.3796    35.1999    35.1886 0.0000e+00
    318.795    168.000    12.3749    12.3803   4.063814   4.063350    12.3525    12.3579    35.1962    35.1867 0.0000e+00
    321.562    169.000    12.3620    12.3671   4.062425   4.061875    12.3395    12.3446    35.1945    35.1843 0.0000e+00
    323.030    170.000    12.3449    12.3495   4.060554   4.059983    12.3223    12.3269    35.1920    35.1821 0.0000e+00
    324.231    171.000    12.3286    12.3331   4.058810   4.058228    12.3059    12.3104    35.1899    35.1800 0.0000e+00
    326.266    172.000    12.3184    12.3230   4.057728   4.057181    12.2955    12.3001    35.1886    35.1789 0.0000e+00
    328.583    173.000    12.3117    12.3164   4.057032   4.056515    12.2887    12.2935    35.1877    35.1782 0.0000e+00
    329.406    174.000    12.3078    12.3127   4.056665   4.056160    12.2847    12.2895    35.1873    35.1779 0.0000e+00
    331.702    175.000    12.3044    12.3092   4.056304   4.055795    12.2811    12.2859    35.1866    35.1772 0.0000e+00
    334.308    176.000    12.2997    12.3047   4.055844   4.055339    12.2763    12.2813    35.1862    35.1766 0.0000e+00
    335.125    177.000    12.2898    12.2948   4.054800   4.054260    12.2663    12.2713    35.1849    35.1749 0.0000e+00
    336.030    178.000    12.2770    12.2819   4.053390   4.052853    12.2534    12.2583    35.1828    35.1729 0.0000e+00
    338.118    179.000    12.2696    12.2742   4.052590   4.052079    12.2459    12.2504    35.1815    35.1723 0.0000e+00
    339.896    180.000    12.2697    12.2743   4.052676   4.052163    12.2459    12.2504    35.1818    35.1725 0.0000e+00
    341.542    181.000    12.2676    12.2720   4.052463   4.051923    12.2436    12.2480    35.1813    35.1719 0.0000e+00
    343.785    182.000    12.2596    12.2646   4.051619   4.051118    12.2355    12.2404    35.1802    35.1707 0.0000e+00
    345.056    183.000    12.2508    12.2554   4.050687   4.050154    12.2266    12.2311    35.1790    35.1695 0.0000e+00
    347.232    184.000    12.2375    12.2423   4.049252   4.048706    12.2132    12.2180    35.1771    35.1673 0.0000e+00
    348.628    185.000    12.2136    12.2177   4.046684   4.046071    12.1892    12.1933    35.1742    35.1644 0.0000e+00
    349.987    186.000    12.1942    12.1987   4.044602   4.044029    12.1697    12.1741    35.1717    35.1620 0.0000e+00
    351.508    187.000    12.1756    12.1802   4.042623   4.042084    12.1509    12.1555    35.1696    35.1600 0.0000e+00
    353.455    188.000    12.1662    12.1708   4.041652   4.041135    12.1415    12.1460    35.1685    35.1592 0.0000e+00
    356.097    189.000    12.1632    12.1677   4.041386   4.040868    12.1383    12.1427    35.1684    35.1591 0.0000e+00
    356.827    190.000    12.1594    12.1637   4.041043   4.040517    12.1343    12.1387    35.1682    35.1590 0.0000e+00
    357.698    191.000    12.1526    12.1570   4.040368   4.039814    12.1274    12.1318    35.1675    35.1580 0.0000e+00
    361.656    192.000    12.1339    12.1392   4.038408   4.037831    12.1086    12.1139    35.1656    35.1550 0.0000e+00
    362.480    193.000    12.0900    12.0949   4.033840   4.033062    12.0647    12.0696    35.1620    35.1498 0.0000e+00
    363.041    194.000    12.0531    12.0581   4.029908   4.029042    12.0277    12.0327    35.1580    35.1449 0.0000e+00
    365.395    195.000    12.0085    12.0129   4.024920   4.024340    11.9830    11.9874    35.1509    35.1411 0.0000e+00
    368.385    196.000    12.0041    12.0086   4.024474   4.023985    11.9785    11.9830    35.1503    35.1412 0.0000e+00
    369.072    197.000    12.0027    12.0074   4.024357   4.023854    11.9770    11.9816    35.1500    35.1407 0.0000e+00
    372.149    198.000    11.9957    12.0001   4.023559   4.023051    11.9698    11.9742    35.1484    35.1393 0.0000e+00
    374.111    199.000    11.9783    11.9831   4.021746   4.021213    11.9523    11.9571    35.1467    35.1369 0.0000e+00
    375.996    200.000    11.9540    11.9585   4.019144   4.018641    11.9279    11.9325    35.1437    35.1345 0.0000e+00
    377.124    201.000    11.9310    11.9365   4.016717   4.016160    11.9048    11.9103    35.1413    35.1306 0.0000e+00
    377.836    202.000    11.9004    11.9055   4.013462   4.012874    11.8742    11.8792    35.1378    35.1273 0.0000e+00
    380.804    203.000    11.8786    11.8830   4.011093   4.010575    11.8522    11.8566    35.1348    35.1256 0.0000e+00
    383.177    204.000    11.8739    11.8785   4.010625   4.010121    11.8474    11.8520    35.1342    35.1249 0.0000e+00
    384.494    205.000    11.8638    11.8679   4.009528   4.008968    11.8372    11.8413    35.1326    35.1232 0.0000e+00
    386.259    206.000    11.8406    11.8453   4.007033   4.006498    11.8139    11.8186    35.1296    35.1199 0.0000e+00
    388.622    207.000    11.8078    11.8123   4.003516   4.002989    11.7810    11.7855    35.1257    35.1163 0.0000e+00
    390.819    208.000    11.7942    11.7984   4.002087   4.001574    11.7673    11.7715    35.1240    35.1150 0.0000e+00
    392.218    209.000    11.7936    11.7979   4.002082   4.001584    11.7666    11.7709    35.1241    35.1152 0.0000e+00
    393.292    210.000    11.7892    11.7936   4.001659   4.001148    11.7621    11.7665    35.1237    35.1145 0.0000e+00
    395.626    211.000    11.7797    11.7841   4.000658   4.000166    11.7524    11.7568    35.1224    35.1135 0.0000e+00
    398.769    212.000    11.7712    11.7755   3.999767   3.999271    11.7438    11.7481    35.1213    35.1123 0.0000e+00
    400.392    213.000    11.7645    11.7688   3.999118   3.998595    11.7371    11.7414    35.1207    35.1115 0.0000e+00
    401.292    214.000    11.7561    11.7605   3.998272   3.997786    11.7285    11.7329    35.1200    35.1110 0.0000e+00
    402.170    215.000    11.7539    11.7584   3.998096   3.997608    11.7262    11.7306    35.1199    35.1109 0.0000e+00
    404.236    216.000    11.7520    11.7563   3.997921   3.997429    11.7241    11.7285    35.1195    35.1106 0.0000e+00
    407.126    217.000    11.7531    11.7575   3.998112   3.997636    11.7251    11.7295    35.1199    35.1111 0.0000e+00
    409.291    218.000    11.7538    11.7580   3.998253   3.997752    11.7257    11.7299    35.1202    35.1113 0.0000e+00
    410.516    219.000    11.7501    11.7544   3.997914   3.997399    11.7219    11.7261    35.1199    35.1109 0.0000e+00
    411.458    220.000    11.7421    11.7464   3.997112   3.996562    11.7138    11.7180    35.1191    35.1098 0.0000e+00
    412.288    221.000    11.7348    11.7392   3.996358   3.995836    11.7064    11.7107    35.1182    35.1090 0.0000e+00
    413.147    222.000    11.7308    11.7351   3.995928   3.995418    11.7022    11.7065    35.1174    35.1083 0.0000e+00
    414.196    223.000    11.7276    11.7319   3.995596   3.995095    11.6989    11.7032    35.1167    35.1077 0.0000e+00
    415.432    224.000    11.7255    11.7296   3.995394   3.994880    11.6966    11.7008    35.1163    35.1073 0.0000e+00
    416.635    225.000    11.7197    11.7243   3.994822   3.994345    11.6907    11.6954    35.1157    35.1066 0.0000e+00
    419.130    226.000    11.7150    11.7191   3.994364   3.993847    11.6859    11.6900    35.1152    35.1062 0.0000e+00
    421.376    227.000    11.7142    11.7185   3.994354   3.993863    11.6850    11.6892    35.1154    35.1066 0.0000e+00
    422.107    228.000    11.7131    11.7175   3.994312   3.993825    11.6837    11.6881    35.1156    35.1067 0.0000e+00
    422.887    229.000    11.7129    11.7171   3.994307   3.993806    11.6834    11.6876    35.1153    35.1064 0.0000e+00
    426.418    230.000    11.7125    11.7169   3.994317   3.993835    11.6829    11.6873    35.1153    35.1065 0.0000e+00
    427.829    231.000    11.7095    11.7142   3.994074   3.993580    11.6798    11.6845    35.1154    35.1061 0.0000e+00
    428.466    232.000    11.6958    11.7002   3.992651   3.992055    11.6660    11.6703    35.1139    35.1039 0.0000e+00
    429.113    233.000    11.6837    11.6878   3.991441   3.990858    11.6537    11.6579    35.1130    35.1034 0.0000e+00
    429.936    234.000    11.6720    11.6760   3.990306   3.989709    11.6419    11.6459    35.1125    35.1028 0.0000e+00
    433.460    235.000    11.6553    11.6600   3.988557   3.988059    11.6251    11.6298    35.1106    35.1013 0.0000e+00
    435.390    236.000    11.6397    11.6442   3.986986   3.986410    11.6095    11.6140    35.1094    35.0995 0.0000e+00
    436.162    237.000    11.6241    11.6289   3.985286   3.984755    11.5937    11.5985    35.1071    35.0973 0.0000e+00
    437.211    238.000    11.6004    11.6053   3.982794   3.982256    11.5699    11.5748    35.1045    35.0947 0.0000e+00
    439.483    239.000    11.5863    11.5904   3.981289   3.980793    11.5557    11.5599    35.1026    35.0938 0.0000e+00
    440.701    240.000    11.5835    11.5880   3.981028   3.980544    11.5528    11.5573    35.1023    35.0932 0.0000e+00
    441.617    241.000    11.5818    11.5860   3.980895   3.980394    11.5510    11.5552    35.1021    35.0932 0.0000e+00
    444.266    242.000    11.5807    11.5850   3.980803   3.980309    11.5498    11.5540    35.1018    35.0929 0.0000e+00
    445.556    243.000    11.5730    11.5777   3.980078   3.979542    11.5419    11.5466    35.1016    35.0918 0.0000e+00
    446.235    244.000    11.5591    11.5633   3.978604   3.978009    11.5279    11.5321    35.0998    35.0899 0.0000e+00
    447.693    245.000    11.5359    11.5402   3.976015   3.975493    11.5046    11.5090    35.0958    35.0865 0.0000e+00
    449.942    246.000    11.5222    11.5265   3.974489   3.973976    11.4908    11.4951    35.0932    35.0841 0.0000e+00
    451.424    247.000    11.5087    11.5127   3.972998   3.972459    11.4772    11.4813    35.0909    35.0817 0.0000e+00
    453.652    248.000    11.4997    11.5037   3.972015   3.971483    11.4681    11.4721    35.0893    35.0802 0.0000e+00
    454.714    249.000    11.4932    11.4975   3.971367   3.970859    11.4615    11.4658    35.0886    35.0795 0.0000e+00
    455.895    250.000    11.4900    11.4942   3.971026   3.970531    11.4582    11.4624    35.0878    35.0789 0.0000e+00
    457.402    251.000    11.4887    11.4929   3.970910   3.970427    11.4567    11.4609    35.0875    35.0787 0.0000e+00
    458.437    252.000    11.4858    11.4902   3.970688   3.970195    11.4538    11.4582    35.0875    35.0785 0.0000e+00
    460.103    253.000    11.4825    11.4868   3.970354   3.969860    11.4503    11.4546    35.0870    35.0780 0.0000e+00
    462.832    254.000    11.4798    11.4842   3.970114   3.969622    11.4475    11.4518    35.0867    35.0777 0.0000e+00
    463.670    255.000    11.4774    11.4816   3.969910   3.969413    11.4450    11.4492    35.0865    35.0776 0.0000e+00
    465.608    256.000    11.4759    11.4801   3.969760   3.969256    11.4434    11.4475    35.0860    35.0771 0.0000e+00
    467.583    257.000    11.4671    11.4720   3.968873   3.968379    11.4344    11.4393    35.0852    35.0757 0.0000e+00
    468.327    258.000    11.4458    11.4503   3.966679   3.966070    11.4131    11.4175    35.0832    35.0730 0.0000e+00
    469.827    259.000    11.4209    11.4251   3.963983   3.963415    11.3881    11.3923    35.0797    35.0701 0.0000e+00
    472.206    260.000    11.3986    11.4033   3.961588   3.961106    11.3657    11.3704    35.0768    35.0676 0.0000e+00
    472.983    261.000    11.3759    11.3810   3.959250   3.958656    11.3429    11.3480    35.0747    35.0641 0.0000e+00
    475.628    262.000    11.3463    11.3502   3.956042   3.955494    11.3132    11.3171    35.0707    35.0616 0.0000e+00
    478.108    263.000    11.3254    11.3302   3.953906   3.953334    11.2922    11.2970    35.0689    35.0587 0.0000e+00
    478.677    264.000    11.3165    11.3207   3.952931   3.952415    11.2832    11.2874    35.0673    35.0581 0.0000e+00
    479.976    265.000    11.3157    11.3199   3.952877   3.952377    11.2823    11.2865    35.0670    35.0580 0.0000e+00
    481.892    266.000    11.3160    11.3201   3.953040   3.952558    11.2824    11.2865    35.0679    35.0593 0.0000e+00
    482.921    267.000    11.3182    11.3225   3.953467   3.952986    11.2845    11.2888    35.0696    35.0608 0.0000e+00
    484.033    268.000    11.3215    11.3255   3.953949   3.953433    11.2877    11.2917    35.0708    35.0619 0.0000e+00
    485.283    269.000    11.3250    11.3292   3.954415   3.953949    11.2910    11.2952    35.0717    35.0631 0.0000e+00
    486.432    270.000    11.3275    11.3317   3.954825   3.954344    11.2935    11.2977    35.0729    35.0641 0.0000e+00
    487.553    271.000    11.3280    11.3323   3.954950   3.954462    11.2938    11.2981    35.0733    35.0643 0.0000e+00
    489.124    272.000    11.3227    11.3269   3.954452   3.953929    11.2884    11.2926    35.0729    35.0637 0.0000e+00
    490.313    273.000    11.3069    11.3117   3.952823   3.952301    11.2725    11.2773    35.0713    35.0616 0.0000e+00
    491.032    274.000    11.2935    11.2981   3.951433   3.950927    11.2590    11.2636    35.0699    35.0605 0.0000e+00
    491.660    275.000    11.2892    11.2933   3.950965   3.950446    11.2545    11.2587    35.0689    35.0597 0.0000e+00
    492.380    276.000    11.2841    11.2884   3.950448   3.949939    11.2493    11.2536    35.0681    35.0590 0.0000e+00
    495.124    277.000    11.2738    11.2780   3.949355   3.948861    11.2389    11.2431    35.0666    35.0578 0.0000e+00
    496.697    278.000    11.2682    11.2725   3.948762   3.948289    11.2332    11.2375    35.0656    35.0568 0.0000e+00
    497.739    279.000    11.2612    11.2658   3.948065   3.947574    11.2261    11.2307    35.0649    35.0557 0.0000e+00
    498.602    280.000    11.2516    11.2560   3.947093   3.946585    11.2164    11.2208    35.0639    35.0547 0.0000e+00
    499.270    281.000    11.2436    11.2480   3.946292   3.945818    11.2083    11.2127    35.0631    35.0542 0.0000e+00
    499.861    282.000    11.2394    11.2437   3.945875   3.945360    11.2040    11.2083    35.0625    35.0533 0.0000e+00
    500.515    283.000    11.2281    11.2324   3.944668   3.944093    11.1926    11.1969    35.0608    35.0511 0.0000e+00
    501.559    284.000    11.1997    11.2043   3.941566   3.940996    11.1641    11.1687    35.0566    35.0466 0.0000e+00
    504.836    285.000    11.1622    11.1665   3.937495   3.937027    11.1266    11.1309    35.0513    35.0426 0.0000e+00
    505.997    286.000    11.1538    11.1586   3.936616   3.936121    11.1180    11.1228    35.0502    35.0407 0.0000e+00
    506.637    287.000    11.1427    11.1472   3.935408   3.934910    11.1069    11.1114    35.0483    35.0390 0.0000e+00
    508.109    288.000    11.1362    11.1406   3.934710   3.934231    11.1002    11.1046    35.0471    35.0382 0.0000e+00
    510.369    289.000    11.1316    11.1360   3.934262   3.933770    11.0956    11.0999    35.0465    35.0375 0.0000e+00
    510.893    290.000    11.1219    11.1270   3.933249   3.932785    11.0857    11.0908    35.0453    35.0358 0.0000e+00
    511.386    291.000    11.1186    11.1230   3.932890   3.932422    11.0823    11.0867    35.0443    35.0356 0.0000e+00
    511.884    292.000    11.1167    11.1210   3.932711   3.932220    11.0803    11.0845    35.0440    35.0350 0.0000e+00
    514.149    293.000    11.1160    11.1203   3.932658   3.932191    11.0794    11.0838    35.0437    35.0349 0.0000e+00
    515.900    294.000    11.1150    11.1194   3.932642   3.932146    11.0784    11.0827    35.0440    35.0349 0.0000e+00
    516.569    295.000    11.1142    11.1185   3.932585   3.932095    11.0774    11.0817    35.0438    35.0348 0.0000e+00
    517.532    296.000    11.1122    11.1166   3.932367   3.931902    11.0753    11.0796    35.0431    35.0343 0.0000e+00
    519.770    297.000    11.1091    11.1134   3.932051   3.931575    11.0721    11.0764    35.0424    35.0336 0.0000e+00
    521.181    298.000    11.1066    11.1110   3.931810   3.931338    11.0694    11.0738    35.0420    35.0331 0.0000e+00
    522.123    299.000    11.0897    11.0956   3.929984   3.929472    11.0525    11.0583    35.0394    35.0287 0.0000e+00
    523.122    300.000    11.0088    11.0157   3.921154   3.920629    10.9716    10.9785    35.0280    35.0162 0.0000e+00
    524.662    301.000    10.9601    10.9647   3.915719   3.915268    10.9228    10.9275    35.0197    35.0108 0.0000e+00
    526.014    302.000    10.9335    10.9389   3.912880   3.912448    10.8962    10.9016    35.0163    35.0068 0.0000e+00
    526.873    303.000    10.9226    10.9270   3.911736   3.911257    10.8852    10.8896    35.0148    35.0058 0.0000e+00
    527.611    304.000    10.9218    10.9262   3.911721   3.911245    10.8843    10.8887    35.0149    35.0060 0.0000e+00
    528.695    305.000    10.9212    10.9256   3.911706   3.911233    10.8836    10.8879    35.0149    35.0060 0.0000e+00
    531.001    306.000    10.9115    10.9171   3.910720   3.910322    10.8737    10.8794    35.0139    35.0045 0.0000e+00
    531.802    307.000    10.8854    10.8903   3.908063   3.907537    10.8476    10.8525    35.0118    35.0018 0.0000e+00
    532.430    308.000    10.8668    10.8716   3.906162   3.905547    10.8290    10.8337    35.0100    34.9993 0.0000e+00
    534.193    309.000    10.8225    10.8267   3.901593   3.901021    10.7846    10.7888    35.0061    34.9964 0.0000e+00
    536.756    310.000    10.8008    10.8055   3.899517   3.899029    10.7628    10.7676    35.0056    34.9962 0.0000e+00
    537.326    311.000    10.7860    10.7909   3.898140   3.897631    10.7479    10.7529    35.0055    34.9956 0.0000e+00
    537.821    312.000    10.7800    10.7846   3.897562   3.897063    10.7419    10.7464    35.0049    34.9955 0.0000e+00
    538.290    313.000    10.7734    10.7779   3.896923   3.896408    10.7351    10.7396    35.0044    34.9949 0.0000e+00
    538.856    314.000    10.7598    10.7642   3.895552   3.894974    10.7214    10.7258    35.0032    34.9932 0.0000e+00
    541.601    315.000    10.7393    10.7439   3.893423   3.892992    10.7009    10.7054    35.0009    34.9923 0.0000e+00
    543.100    316.000    10.7428    10.7472   3.893876   3.893409    10.7042    10.7086    35.0017    34.9928 0.0000e+00
    543.997    317.000    10.7416    10.7460   3.893787   3.893326    10.7029    10.7073    35.0016    34.9927 0.0000e+00
    545.145    318.000    10.7389    10.7432   3.893548   3.893063    10.7001    10.7043    35.0013    34.9923 0.0000e+00
    546.703    319.000    10.7323    10.7364   3.892903   3.892399    10.6933    10.6975    35.0007    34.9917 0.0000e+00
    547.883    320.000    10.7244    10.7291   3.892164   3.891693    10.6854    10.6901    35.0003    34.9911 0.0000e+00
    548.703    321.000    10.7109    10.7156   3.890810   3.890287    10.6718    10.6765    34.9992    34.9894 0.0000e+00
    549.363    322.000    10.6856    10.6908   3.888184   3.887621    10.6464    10.6516    34.9965    34.9860 0.0000e+00
    550.005    323.000    10.6667    10.6710   3.886131   3.885539    10.6274    10.6317    34.9936    34.9835 0.0000e+00
    552.239    324.000    10.6478    10.6522   3.884091   3.883589    10.6085    10.6128    34.9907    34.9815 0.0000e+00
    554.557    325.000    10.6219    10.6271   3.881325   3.880867    10.5825    10.5877    34.9872    34.9776 0.0000e+00
    555.436    326.000    10.6056    10.6102   3.879634   3.879148    10.5661    10.5707    34.9853    34.9760 0.0000e+00
    556.137    327.000    10.6005    10.6051   3.879139   3.878646    10.5609    10.5655    34.9848    34.9754 0.0000e+00
    556.753    328.000    10.5939    10.5979   3.878456   3.877928    10.5542    10.5582    34.9838    34.9746 0.0000e+00
    557.377    329.000    10.5914    10.5957   3.878232   3.877760    10.5516    10.5559    34.9835    34.9746 0.0000e+00
    558.117    330.000    10.5861    10.5907   3.877757   3.877279    10.5461    10.5508    34.9833    34.9741 0.0000e+00
    559.066    331.000    10.5798    10.5850   3.877171   3.876756    10.5398    10.5449    34.9830    34.9738 0.0000e+00
    562.203    332.000    10.5725    10.5765   3.876485   3.875980    10.5323    10.5364    34.9827    34.9737 0.0000e+00
    564.071    333.000    10.5613    10.5661   3.875422   3.874940    10.5210    10.5259    34.9822    34.9727 0.0000e+00
    564.531    334.000    10.5552    10.5602   3.874849   3.874368    10.5148    10.5198    34.9818    34.9722 0.0000e+00
    565.043    335.000    10.5372    10.5420   3.873137   3.872545    10.4968    10.5015    34.9813    34.9708 0.0000e+00
    565.654    336.000    10.5125    10.5170   3.870599   3.869997    10.4720    10.4765    34.9789    34.9686 0.0000e+00
    566.676    337.000    10.4874    10.4919   3.867989   3.867461    10.4469    10.4514    34.9762    34.9665 0.0000e+00
    568.721    338.000    10.4398    10.4443   3.863129   3.862502    10.3992    10.4037    34.9723    34.9617 0.0000e+00
    570.024    339.000    10.3964    10.4015   3.858716   3.858274    10.3558    10.3609    34.9689    34.9595 0.0000e+00
    571.339    340.000    10.3875    10.3915   3.858032   3.857507    10.3468    10.3508    34.9701    34.9609 0.0000e+00
    572.827    341.000    10.3605    10.3652   3.855658   3.855131    10.3197    10.3245    34.9715    34.9617 0.0000e+00
    573.861    342.000    10.3541    10.3587   3.855205   3.854770    10.3133    10.3178    34.9726    34.9639 0.0000e+00
    574.790    343.000    10.3469    10.3515   3.854728   3.854208    10.3060    10.3106    34.9743    34.9646 0.0000e+00
    575.894    344.000    10.3178    10.3224   3.851768   3.851245    10.2768    10.2814    34.9718    34.9621 0.0000e+00
    576.867    345.000    10.2849    10.2903   3.848355   3.847849    10.2439    10.2493    34.9684    34.9580 0.0000e+00
    577.607    346.000    10.2392    10.2451   3.843573   3.843036    10.1981    10.2040    34.9634    34.9522 0.0000e+00
    578.394    347.000    10.2085    10.2128   3.840307   3.839705    10.1675    10.1718    34.9592    34.9490 0.0000e+00
    581.568    348.000    10.1805    10.1849   3.837346   3.836827    10.1393    10.1438    34.9557    34.9461 0.0000e+00
    582.628    349.000    10.1539    10.1608   3.834677   3.834206    10.1128    10.1196    34.9536    34.9422 0.0000e+00
    583.198    350.000    10.0737    10.0815   3.826369   3.825617    10.0326    10.0404    34.9459    34.9307 0.0000e+00
    584.542    351.000    10.0360    10.0414   3.822040   3.821536     9.9949    10.0002    34.9376    34.9273 0.0000e+00
    586.686    352.000    10.0228    10.0277   3.820571   3.820129     9.9816     9.9865    34.9349    34.9257 0.0000e+00
    587.364    353.000     9.9993    10.0050   3.818271   3.817746     9.9581     9.9638    34.9336    34.9228 0.0000e+00
    587.988    354.000     9.9681     9.9738   3.815097   3.814584     9.9268     9.9325    34.9309    34.9202 0.0000e+00
    589.711    355.000     9.9328     9.9366   3.811431   3.810837     9.8915     9.8953    34.9271    34.9173 0.0000e+00
    592.213    356.000     9.8933     9.8994   3.807455   3.807014     9.8519     9.8581    34.9241    34.9136 0.0000e+00
    592.854    357.000     9.8421     9.8484   3.802351   3.801767     9.8008     9.8070    34.9208    34.9088 0.0000e+00
    593.508    358.000     9.7423     9.7499   3.792130   3.791303     9.7011     9.7087    34.9120    34.8962 0.0000e+00
    595.351    359.000     9.6051     9.6092   3.777663   3.777125     9.5641     9.5683    34.8957    34.8861 0.0000e+00
    596.939    360.000     9.5820     9.5879   3.775318   3.774874     9.5410     9.5470    34.8934    34.8831 0.0000e+00
    597.471    361.000     9.5419     9.5486   3.771407   3.770774     9.5010     9.5076    34.8915    34.8785 0.0000e+00
    597.944    362.000     9.5096     9.5153   3.768000   3.767462     9.4685     9.4742    34.8873    34.8762 0.0000e+00
    598.420    363.000     9.5029     9.5074   3.767280   3.766792     9.4618     9.4663    34.8858    34.8764 0.0000e+00
    600.805    364.000     9.4903     9.4939   3.765991   3.765420     9.4491     9.4527    34.8843    34.8749 0.0000e+00
    602.976    365.000     9.4748     9.4793   3.764498   3.764013     9.4336     9.4381    34.8834    34.8740 0.0000e+00
    603.384    366.000     9.4642     9.4695   3.763479   3.762958     9.4228     9.4281    34.8828    34.8723 0.0000e+00
    603.817    367.000     9.4428     9.4484   3.761311   3.760756     9.4014     9.4070    34.8807    34.8695 0.0000e+00
    604.301    368.000     9.4212     9.4247   3.759035   3.758337     9.3798     9.3832    34.8776    34.8671 0.0000e+00
    606.506    369.000     9.4093     9.4123   3.757714   3.757140     9.3677     9.3707    34.8751    34.8663 0.0000e+00
    608.071    370.000     9.3992     9.4039   3.756750   3.756313     9.3576     9.3622    34.8745    34.8654 0.0000e+00
    608.754    371.000     9.3488     9.3551   3.751574   3.750963     9.3072     9.3135    34.8694    34.8570 0.0000e+00
    609.760    372.000     9.2809     9.2860   3.744556   3.744085     9.2393     9.2445    34.8622    34.8523 0.0000e+00
    611.270    373.000     9.2639     9.2680   3.742779   3.742314     9.2223     9.2264    34.8599    34.8510 0.0000e+00
    612.230    374.000     9.2606     9.2653   3.742519   3.742071     9.2189     9.2236    34.8599    34.8506 0.0000e+00
    612.998    375.000     9.2397     9.2443   3.740408   3.739918     9.1979     9.2025    34.8579    34.8483 0.0000e+00
    614.070    376.000     9.2309     9.2353   3.739527   3.739070     9.1891     9.1934    34.8568    34.8478 0.0000e+00
    615.646    377.000     9.2243     9.2290   3.738880   3.738438     9.1824     9.1870    34.8560    34.8469 0.0000e+00
    616.440    378.000     9.2112     9.2160   3.737613   3.737157     9.1692     9.1739    34.8551    34.8458 0.0000e+00
    617.050    379.000     9.2062     9.2107   3.737137   3.736690     9.1641     9.1686    34.8546    34.8455 0.0000e+00
    617.676    380.000     9.1995     9.2040   3.736513   3.736042     9.1573     9.1618    34.8541    34.8449 0.0000e+00
    619.336    381.000     9.1937     9.1982   3.735957   3.735525     9.1514     9.1559    34.8536    34.8447 0.0000e+00
    621.350    382.000     9.1896     9.1940   3.735580   3.735117     9.1472     9.1516    34.8532    34.8441 0.0000e+00
    622.289    383.000     9.1595     9.1655   3.732597   3.732232     9.1170     9.1231    34.8511    34.8414 0.0000e+00
    623.152    384.000     9.1453     9.1499   3.731108   3.730716     9.1028     9.1073    34.8489    34.8404 0.0000e+00
    624.092    385.000     9.1365     9.1409   3.730272   3.729803     9.0939     9.0983    34.8483    34.8391 0.0000e+00
    625.098    386.000     9.1121     9.1167   3.727772   3.727241     9.0694     9.0740    34.8456    34.8356 0.0000e+00
    626.053    387.000     9.0664     9.0718   3.723122   3.722612     9.0238     9.0292    34.8412    34.8307 0.0000e+00
    626.937    388.000     9.0351     9.0396   3.719959   3.719451     8.9925     8.9969    34.8383    34.8286 0.0000e+00
    627.818    389.000     9.0038     9.0083   3.716725   3.716187     8.9611     8.9656    34.8347    34.8247 0.0000e+00
    630.078    390.000     8.9788     8.9833   3.714160   3.713735     8.9361     8.9406    34.8318    34.8230 0.0000e+00
    631.798    391.000     8.9658     8.9707   3.712911   3.712473     8.9230     8.9279    34.8310    34.8216 0.0000e+00
    632.420    392.000     8.9479     8.9536   3.711095   3.710650     8.9051     8.9108    34.8290    34.8188 0.0000e+00
    633.091    393.000     8.9285     8.9332   3.709031   3.708530     8.8857     8.8903    34.8259    34.8161 0.0000e+00
    634.087    394.000     8.9123     8.9169   3.707263   3.706837     8.8693     8.8740    34.8228    34.8138 0.0000e+00
    635.201    395.000     8.8971     8.9022   3.705701   3.705285     8.8541     8.8592    34.8208    34.8115 0.0000e+00
    636.146    396.000     8.8789     8.8835   3.703794   3.703286     8.8359     8.8405    34.8181    34.8083 0.0000e+00
    638.319    397.000     8.8506     8.8555   3.700841   3.700450     8.8075     8.8124    34.8144    34.8055 0.0000e+00
    639.767    398.000     8.8377     8.8428   3.699526   3.699115     8.7945     8.7996    34.8128    34.8035 0.0000e+00
    640.511    399.000     8.8152     8.8202   3.697248   3.696723     8.7719     8.7770    34.8105    34.8000 0.0000e+00
    641.282    400.000     8.7830     8.7875   3.693880   3.693336     8.7398     8.7443    34.8061    34.7960 0.0000e+00
    642.330    401.000     8.7541     8.7590   3.690876   3.690413     8.7109     8.7158    34.8024    34.7927 0.0000e+00
    643.554    402.000     8.7252     8.7297   3.687903   3.687444     8.6820     8.6864    34.7990    34.7898 0.0000e+00
    644.455    403.000     8.7119     8.7164   3.686544   3.686066     8.6685     8.6731    34.7973    34.7878 0.0000e+00
    645.188    404.000     8.6953     8.6997   3.684827   3.684359     8.6519     8.6563    34.7950    34.7858 0.0000e+00
    646.159    405.000     8.6850     8.6896   3.683762   3.683318     8.6415     8.6462    34.7934    34.7842 0.0000e+00
    648.032    406.000     8.6673     8.6721   3.681923   3.681502     8.6238     8.6285    34.7909    34.7818 0.0000e+00
    649.143    407.000     8.6555     8.6604   3.680735   3.680309     8.6119     8.6167    34.7896    34.7803 0.0000e+00
    650.086    408.000     8.6300     8.6338   3.678165   3.677611     8.5863     8.5902    34.7870    34.7774 0.0000e+00
    651.224    409.000     8.5952     8.5998   3.674694   3.674242     8.5515     8.5562    34.7841    34.7748 0.0000e+00
    652.235    410.000     8.5774     8.5823   3.672912   3.672498     8.5337     8.5386    34.7823    34.7731 0.0000e+00
    652.954    411.000     8.5690     8.5737   3.672097   3.671684     8.5252     8.5300    34.7814    34.7724 0.0000e+00
    653.567    412.000     8.5539     8.5593   3.670661   3.670207     8.5100     8.5154    34.7807    34.7706 0.0000e+00
    654.253    413.000     8.5327     8.5372   3.668523   3.668048     8.4888     8.4933    34.7785    34.7690 0.0000e+00
    656.178    414.000     8.5273     8.5318   3.668076   3.667654     8.4834     8.4878    34.7785    34.7696 0.0000e+00
    658.305    415.000     8.5236     8.5283   3.667844   3.667429     8.4796     8.4842    34.7792    34.7702 0.0000e+00
    659.012    416.000     8.5119     8.5167   3.666806   3.666345     8.4678     8.4726    34.7793    34.7697 0.0000e+00
    659.704    417.000     8.4989     8.5037   3.665696   3.665249     8.4547     8.4595    34.7799    34.7704 0.0000e+00
    660.840    418.000     8.4786     8.4829   3.663688   3.663195     8.4343     8.4386    34.7782    34.7687 0.0000e+00
    662.203    419.000     8.4243     8.4316   3.658178   3.657815     8.3801     8.3874    34.7727    34.7617 0.0000e+00
    662.997    420.000     8.3687     8.3733   3.652649   3.652187     8.3246     8.3292    34.7683    34.7589 0.0000e+00
    663.694    421.000     8.3636     8.3683   3.652128   3.651719     8.3194     8.3241    34.7674    34.7584 0.0000e+00
    664.950    422.000     8.3477     8.3523   3.650551   3.650129     8.3035     8.3080    34.7658    34.7568 0.0000e+00
    667.426    423.000     8.3344     8.3393   3.649229   3.648838     8.2900     8.2950    34.7645    34.7554 0.0000e+00
    668.243    424.000     8.3165     8.3214   3.647486   3.647036     8.2721     8.2770    34.7631    34.7535 0.0000e+00
    668.851    425.000     8.2965     8.3020   3.645622   3.645134     8.2521     8.2575    34.7625    34.7520 0.0000e+00
    669.361    426.000     8.2796     8.2846   3.644065   3.643591     8.2351     8.2401    34.7622    34.7522 0.0000e+00
    669.864    427.000     8.2720     8.2766   3.643402   3.642950     8.2274     8.2320    34.7621    34.7528 0.0000e+00
    671.958    428.000     8.2627     8.2653   3.642610   3.642015     8.2181     8.2206    34.7624    34.7536 0.0000e+00
    674.269    429.000     8.2524     8.2573   3.641802   3.641383     8.2077     8.2126    34.7635    34.7542 0.0000e+00
    674.737    430.000     8.2432     8.2480   3.640999   3.640533     8.1984     8.2032    34.7636    34.7539 0.0000e+00
    675.201    431.000     8.2442     8.2483   3.641182   3.640757     8.1993     8.2033    34.7640    34.7555 0.0000e+00
    675.686    432.000     8.2448     8.2492   3.641320   3.640908     8.1998     8.2041    34.7645    34.7558 0.0000e+00
    676.325    433.000     8.2448     8.2494   3.641372   3.640978     8.1997     8.2043    34.7645    34.7558 0.0000e+00
    679.026    434.000     8.2413     8.2449   3.641043   3.640543     8.1960     8.1997    34.7641    34.7551 0.0000e+00
    680.790    435.000     8.2462     8.2496   3.641752   3.641319     8.2008     8.2042    34.7663    34.7583 0.0000e+00
    681.300    436.000     8.2633     8.2672   3.644050   3.643722     8.2178     8.2216    34.7734    34.7661 0.0000e+00
    681.746    437.000     8.2674     8.2719   3.644697   3.644302     8.2217     8.2262    34.7758    34.7671 0.0000e+00
    682.172    438.000     8.2671     8.2714   3.644714   3.644299     8.2213     8.2257    34.7758    34.7671 0.0000e+00
    682.618    439.000     8.2664     8.2711   3.644697   3.644299     8.2206     8.2252    34.7757    34.7670 0.0000e+00
    683.120    440.000     8.2658     8.2704   3.644671   3.644263     8.2198     8.2244    34.7757    34.7668 0.0000e+00
    686.009    441.000     8.2655     8.2699   3.644673   3.644246     8.2194     8.2238    34.7755    34.7666 0.0000e+00
    688.672    442.000     8.2655     8.2699   3.644732   3.644331     8.2193     8.2237    34.7756    34.7670 0.0000e+00
    689.177    443.000     8.2656     8.2701   3.644785   3.644375     8.2194     8.2238    34.7756    34.7669 0.0000e+00
    689.652    444.000     8.2639     8.2685   3.644684   3.644247     8.2175     8.2221    34.7758    34.7666 0.0000e+00
    690.109    445.000     8.2578     8.2620   3.644206   3.643756     8.2113     8.2155    34.7763    34.7673 0.0000e+00
    690.582    446.000     8.2561     8.2600   3.644097   3.643612     8.2096     8.2135    34.7762    34.7672 0.0000e+00
    691.137    447.000     8.2519     8.2563   3.643738   3.643297     8.2052     8.2096    34.7761    34.7671 0.0000e+00
    694.194    448.000     8.2380     8.2433   3.642396   3.642046     8.1913     8.1965    34.7751    34.7662 0.0000e+00
    696.570    449.000     8.2254     8.2302   3.641195   3.640766     8.1786     8.1835    34.7743    34.7649 0.0000e+00
    697.204    450.000     8.2110     8.2158   3.639785   3.639344     8.1641     8.1689    34.7730    34.7636 0.0000e+00
    697.947    451.000     8.2043     8.2087   3.639159   3.638733     8.1574     8.1618    34.7724    34.7636 0.0000e+00
    699.011    452.000     8.1995     8.2041   3.638738   3.638324     8.1525     8.1571    34.7722    34.7633 0.0000e+00
    700.000    453.000     8.1967     8.2013   3.638514   3.638091     8.1496     8.1542    34.7722    34.7631 0.0000e+00
    700.682    454.000     8.1949     8.1994   3.638372   3.637949     8.1477     8.1521    34.7720    34.7630 0.0000e+00
    701.262    455.000     8.1930     8.1976   3.638246   3.637833     8.1457     8.1502    34.7720    34.7631 0.0000e+00
    703.142    456.000     8.1898     8.1944   3.637947   3.637534     8.1424     8.1470    34.7715    34.7626 0.0000e+00
    706.156    457.000     8.1860     8.1909   3.637626   3.637196     8.1385     8.1434    34.7714    34.7620 0.0000e+00
    706.557    458.000     8.1797     8.1846   3.637065   3.636611     8.1322     8.1370    34.7711    34.7615 0.0000e+00
    707.174    459.000     8.1668     8.1710   3.635771   3.635283     8.1192     8.1234    34.7696    34.7603 0.0000e+00
    708.617    460.000     8.1636     8.1654   3.635459   3.634734     8.1158     8.1177    34.7690    34.7595 0.0000e+00
    709.869    461.000     8.1421     8.1467   3.633290   3.632815     8.0943     8.0989    34.7667    34.7570 0.0000e+00
    711.471    462.000     8.1183     8.1232   3.630950   3.630535     8.0705     8.0754    34.7647    34.7555 0.0000e+00
    713.892    463.000     8.1081     8.1127   3.629959   3.629535     8.0602     8.0649    34.7638    34.7547 0.0000e+00
    714.885    464.000     8.0935     8.0981   3.628548   3.628049     8.0455     8.0501    34.7627    34.7528 0.0000e+00
    715.876    465.000     8.0706     8.0750   3.626213   3.625755     8.0227     8.0271    34.7598    34.7506 0.0000e+00
    717.786    466.000     8.0642     8.0688   3.625559   3.625145     8.0161     8.0208    34.7588    34.7497 0.0000e+00
    718.738    467.000     8.0555     8.0602   3.624709   3.624249     8.0074     8.0120    34.7578    34.7483 0.0000e+00
    719.334    468.000     8.0402     8.0457   3.623257   3.622803     7.9921     7.9975    34.7569    34.7467 0.0000e+00
    719.868    469.000     8.0310     8.0358   3.622338   3.621885     7.9828     7.9876    34.7557    34.7461 0.0000e+00
    720.525    470.000     8.0165     8.0211   3.620900   3.620450     7.9682     7.9728    34.7543    34.7449 0.0000e+00
    722.458    471.000     8.0133     8.0192   3.620573   3.620306     7.9649     7.9708    34.7535    34.7447 0.0000e+00
    723.518    472.000     7.9998     8.0041   3.619316   3.618867     7.9513     7.9556    34.7529    34.7438 0.0000e+00
    724.237    473.000     7.9971     8.0016   3.619143   3.618717     7.9486     7.9530    34.7532    34.7442 0.0000e+00
    726.897    474.000     7.9921     7.9975   3.618740   3.618388     7.9435     7.9489    34.7533    34.7442 0.0000e+00
    728.550    475.000     7.9833     7.9877   3.617965   3.617507     7.9345     7.9390    34.7534    34.7440 0.0000e+00
    729.128    476.000     7.9738     7.9783   3.617164   3.616685     7.9250     7.9295    34.7537    34.7441 0.0000e+00
    729.720    477.000     7.9383     7.9441   3.613872   3.613315     7.8895     7.8954    34.7531    34.7413 0.0000e+00
    730.510    478.000     7.9044     7.9084   3.610424   3.609889     7.8556     7.8597    34.7493    34.7395 0.0000e+00
    731.615    479.000     7.8974     7.9033   3.609739   3.609439     7.8486     7.8544    34.7483    34.7393 0.0000e+00
    732.686    480.000     7.8939     7.8985   3.609427   3.609018     7.8450     7.8496    34.7480    34.7390 0.0000e+00
    734.068    481.000     7.8812     7.8856   3.608183   3.607741     7.8322     7.8366    34.7468    34.7376 0.0000e+00
    736.564    482.000     7.8738     7.8788   3.607502   3.607126     7.8248     7.8297    34.7463    34.7374 0.0000e+00
    737.209    483.000     7.8747     7.8792   3.607741   3.607324     7.8255     7.8300    34.7475    34.7386 0.0000e+00
    737.778    484.000     7.8670     7.8721   3.607108   3.606642     7.8178     7.8228    34.7478    34.7378 0.0000e+00
    738.318    485.000     7.8531     7.8580   3.605827   3.605350     7.8038     7.8087    34.7475    34.7374 0.0000e+00
    739.119    486.000     7.8455     7.8503   3.605095   3.604666     7.7962     7.8009    34.7466    34.7373 0.0000e+00
    740.880    487.000     7.8403     7.8443   3.604642   3.604197     7.7908     7.7948    34.7465    34.7377 0.0000e+00
    741.971    488.000     7.8477     7.8521   3.605764   3.605354     7.7981     7.8026    34.7507    34.7419 0.0000e+00
    742.815    489.000     7.8438     7.8484   3.605415   3.605008     7.7941     7.7987    34.7503    34.7414 0.0000e+00
    744.108    490.000     7.8377     7.8423   3.604846   3.604426     7.7879     7.7926    34.7498    34.7407 0.0000e+00
    745.551    491.000     7.8287     7.8337   3.603993   3.603597     7.7788     7.7839    34.7491    34.7398 0.0000e+00
    746.357    492.000     7.8220     7.8267   3.603332   3.602925     7.7721     7.7768    34.7482    34.7391 0.0000e+00
    747.029    493.000     7.8139     7.8188   3.602562   3.602154     7.7639     7.7688    34.7474    34.7382 0.0000e+00
    747.682    494.000     7.8060     7.8111   3.601796   3.601389     7.7560     7.7611    34.7466    34.7371 0.0000e+00
    748.468    495.000     7.7840     7.7887   3.599613   3.599118     7.7340     7.7386    34.7444    34.7344 0.0000e+00
    751.041    496.000     7.7620     7.7662   3.597363   3.596901     7.7119     7.7161    34.7417    34.7324 0.0000e+00
    752.525    497.000     7.7472     7.7524   3.595899   3.595417     7.6970     7.7022    34.7401    34.7298 0.0000e+00
    753.113    498.000     7.6989     7.7062   3.591187   3.590649     7.6488     7.6561    34.7368    34.7238 0.0000e+00
    753.649    499.000     7.6625     7.6682   3.587484   3.587000     7.6124     7.6181    34.7326    34.7217 0.0000e+00
    754.198    500.000     7.6478     7.6521   3.585963   3.585415     7.5977     7.6020    34.7303    34.7201 0.0000e+00
    755.043    501.000     7.6308     7.6361   3.584203   3.583783     7.5807     7.5860    34.7278    34.7179 0.0000e+00
    757.190    502.000     7.5919     7.6042   3.580302   3.580561     7.5418     7.5541    34.7238    34.7144 0.0000e+00
    758.721    503.000     7.5723     7.5767   3.578350   3.577863     7.5222     7.5266    34.7218    34.7121 0.0000e+00
    759.485    504.000     7.5530     7.5581   3.576512   3.576025     7.5028     7.5080    34.7207    34.7102 0.0000e+00
    760.143    505.000     7.5091     7.5155   3.572251   3.571723     7.4590     7.4654    34.7178    34.7057 0.0000e+00
    760.814    506.000     7.4825     7.4869   3.569527   3.569031     7.4324     7.4368    34.7143    34.7045 0.0000e+00
    761.746    507.000     7.4758     7.4798   3.568834   3.568307     7.4257     7.4297    34.7129    34.7032 0.0000e+00
    763.474    508.000     7.4593     7.4638   3.567136   3.566689     7.4091     7.4136    34.7105    34.7012 0.0000e+00
    764.685    509.000     7.4453     7.4502   3.565725   3.565331     7.3950     7.4000    34.7088    34.6996 0.0000e+00
    765.458    510.000     7.4306     7.4359   3.564281   3.563896     7.3803     7.3856    34.7072    34.6978 0.0000e+00
    766.273    511.000     7.4226     7.4274   3.563488   3.563086     7.3723     7.3770    34.7061    34.6970 0.0000e+00
    767.391    512.000     7.4118     7.4164   3.562407   3.561995     7.3614     7.3660    34.7047    34.6956 0.0000e+00
    768.697    513.000     7.4064     7.4109   3.561892   3.561483     7.3559     7.3604    34.7040    34.6951 0.0000e+00
    769.844    514.000     7.4014     7.4059   3.561440   3.561005     7.3509     7.3553    34.7036    34.6944 0.0000e+00
    771.013    515.000     7.3742     7.3800   3.558700   3.558285     7.3236     7.3294    34.7005    34.6902 0.0000e+00
    772.131    516.000     7.3163     7.3215   3.552837   3.552408     7.2659     7.2711    34.6940    34.6842 0.0000e+00
    772.968    517.000     7.2944     7.2993   3.550676   3.550229     7.2440     7.2489    34.6919    34.6822 0.0000e+00
    773.711    518.000     7.2741     7.2787   3.548609   3.548121     7.2236     7.2282    34.6892    34.6794 0.0000e+00
    774.582    519.000     7.2611     7.2655   3.547262   3.546829     7.2105     7.2150    34.6871    34.6780 0.0000e+00
    775.669    520.000     7.2410     7.2461   3.545283   3.544889     7.1904     7.1955    34.6852    34.6758 0.0000e+00
    776.879    521.000     7.2164     7.2214   3.542890   3.542459     7.1659     7.1708    34.6831    34.6735 0.0000e+00
    778.668    522.000     7.1888     7.1931   3.540123   3.539665     7.1382     7.1425    34.6801    34.6708 0.0000e+00
    780.079    523.000     7.1824     7.1866   3.539519   3.539056     7.1318     7.1360    34.6794    34.6702 0.0000e+00
    780.890    524.000     7.1640     7.1690   3.537753   3.537281     7.1133     7.1183    34.6781    34.6679 0.0000e+00
    781.537    525.000     7.1393     7.1449   3.535283   3.534868     7.0887     7.0942    34.6753    34.6652 0.0000e+00
    782.126    526.000     7.1139     7.1188   3.532751   3.532218     7.0633     7.0681    34.6726    34.6619 0.0000e+00
    782.797    527.000     7.1027     7.1073   3.531573   3.531160     7.0520     7.0566    34.6704    34.6613 0.0000e+00
    785.564    528.000     7.0975     7.1018   3.531075   3.530636     7.0468     7.0510    34.6697    34.6607 0.0000e+00
    786.817    529.000     7.0893     7.0939   3.530309   3.529935     7.0384     7.0431    34.6691    34.6603 0.0000e+00
    787.332    530.000     7.0866     7.0912   3.530143   3.529664     7.0357     7.0403    34.6694    34.6596 0.0000e+00
    787.849    531.000     7.0614     7.0670   3.527696   3.527239     7.0105     7.0161    34.6674    34.6568 0.0000e+00
    790.260    532.000     7.0483     7.0548   3.526283   3.526090     6.9973     7.0038    34.6646    34.6560 0.0000e+00
    792.463    533.000     7.0309     7.0361   3.524662   3.524279     6.9799     6.9851    34.6638    34.6544 0.0000e+00
    792.889    534.000     7.0314     7.0370   3.524727   3.524440     6.9803     6.9859    34.6636    34.6548 0.0000e+00
    793.332    535.000     7.0224     7.0273   3.523910   3.523399     6.9713     6.9762    34.6631    34.6526 0.0000e+00
    793.860    536.000     7.0141     7.0187   3.523028   3.522599     6.9629     6.9675    34.6613    34.6520 0.0000e+00
    795.132    537.000     7.0075     7.0167   3.522386   3.522435     6.9562     6.9654    34.6604    34.6517 0.0000e+00
    797.314    538.000     6.9998     7.0029   3.521669   3.521129     6.9485     6.9516    34.6598    34.6507 0.0000e+00
    799.079    539.000     6.9861     6.9905   3.520390   3.519958     6.9347     6.9391    34.6590    34.6498 0.0000e+00
    800.435    540.000     6.9793     6.9837   3.519768   3.519352     6.9278     6.9322    34.6586    34.6496 0.0000e+00
    801.754    541.000     6.9848     6.9891   3.520442   3.520037     6.9332     6.9375    34.6599    34.6511 0.0000e+00
    803.446    542.000     6.9907     6.9953   3.521186   3.520813     6.9390     6.9436    34.6617    34.6530 0.0000e+00
    804.220    543.000     6.9952     6.9998   3.521789   3.521394     6.9433     6.9479    34.6633    34.6544 0.0000e+00
    804.775    544.000     6.9827     6.9878   3.520723   3.520222     6.9308     6.9359    34.6637    34.6530 0.0000e+00
    805.264    545.000     6.9482     6.9533   3.517341   3.516745     6.8964     6.9015    34.6607    34.6490 0.0000e+00
    806.871    546.000     6.9366     6.9417   3.516033   3.515645     6.8848     6.8898    34.6574    34.6481 0.0000e+00
    809.452    547.000     6.9206     6.9261   3.514371   3.514056     6.8687     6.8742    34.6548    34.6458 0.0000e+00
    810.431    548.000     6.9094     6.9142   3.513283   3.512882     6.8574     6.8622    34.6536    34.6444 0.0000e+00
    811.628    549.000     6.8957     6.9007   3.511952   3.511564     6.8437     6.8487    34.6522    34.6430 0.0000e+00
    812.709    550.000     6.8774     6.8821   3.510174   3.509754     6.8254     6.8301    34.6506    34.6412 0.0000e+00
    814.001    551.000     6.8654     6.8698   3.508997   3.508567     6.8133     6.8177    34.6492    34.6401 0.0000e+00
    816.305    552.000     6.8539     6.8576   3.507856   3.507330     6.8017     6.8054    34.6478    34.6383 0.0000e+00
    817.008    553.000     6.8402     6.8450   3.506516   3.506082     6.7881     6.7928    34.6462    34.6367 0.0000e+00
    817.595    554.000     6.8135     6.8196   3.504066   3.503500     6.7614     6.7675    34.6456    34.6332 0.0000e+00
    818.198    555.000     6.7682     6.7732   3.499508   3.498889     6.7162     6.7211    34.6405    34.6286 0.0000e+00
    820.854    556.000     6.7476     6.7515   3.497155   3.496788     6.6956     6.6994    34.6347    34.6268 0.0000e+00
    822.172    557.000     6.7272     6.7319   3.495215   3.494791     6.6751     6.6798    34.6334    34.6240 0.0000e+00
    822.746    558.000     6.7187     6.7231   3.494386   3.493914     6.6665     6.6710    34.6323    34.6226 0.0000e+00
    823.364    559.000     6.7117     6.7162   3.493725   3.493284     6.6595     6.6640    34.6315    34.6222 0.0000e+00
    824.315    560.000     6.7039     6.7085   3.492963   3.492550     6.6516     6.6562    34.6305    34.6214 0.0000e+00
    825.551    561.000     6.6987     6.7027   3.492500   3.492029     6.6464     6.6504    34.6301    34.6209 0.0000e+00
    828.827    562.000     6.6925     6.6973   3.491945   3.491566     6.6401     6.6449    34.6298    34.6208 0.0000e+00
    829.434    563.000     6.6880     6.6927   3.491568   3.491157     6.6355     6.6402    34.6297    34.6204 0.0000e+00
    829.990    564.000     6.6825     6.6872   3.491059   3.490640     6.6299     6.6346    34.6291    34.6197 0.0000e+00
    830.544    565.000     6.6752     6.6798   3.490351   3.489908     6.6226     6.6271    34.6281    34.6186 0.0000e+00
    831.294    566.000     6.6643     6.6685   3.489307   3.488835     6.6116     6.6158    34.6271    34.6176 0.0000e+00
    832.301    567.000     6.6533     6.6563   3.488257   3.487666     6.6005     6.6036    34.6261    34.6165 0.0000e+00
    833.251    568.000     6.6373     6.6422   3.486704   3.486308     6.5845     6.5894    34.6245    34.6153 0.0000e+00
    834.851    569.000     6.6191     6.6238   3.484965   3.484569     6.5663     6.5710    34.6231    34.6140 0.0000e+00
    837.102    570.000     6.6085     6.6129   3.483947   3.483527     6.5556     6.5601    34.6221    34.6129 0.0000e+00
    837.847    571.000     6.5927     6.5971   3.482489   3.481968     6.5398     6.5443    34.6214    34.6111 0.0000e+00
    838.488    572.000     6.5664     6.5715   3.479972   3.479522     6.5136     6.5186    34.6195    34.6094 0.0000e+00
    839.100    573.000     6.5574     6.5621   3.479089   3.478661     6.5045     6.5092    34.6183    34.6088 0.0000e+00
    839.821    574.000     6.5536     6.5581   3.478737   3.478331     6.5006     6.5051    34.6177    34.6087 0.0000e+00
    840.815    575.000     6.5501     6.5546   3.478419   3.478004     6.4971     6.5015    34.6172    34.6082 0.0000e+00
    842.010    576.000     6.5422     6.5470   3.477690   3.477287     6.4891     6.4939    34.6166    34.6073 0.0000e+00
    843.337    577.000     6.5278     6.5334   3.476291   3.475976     6.4746     6.4803    34.6152    34.6060 0.0000e+00
    844.873    578.000     6.5148     6.5192   3.475049   3.474617     6.4616     6.4660    34.6140    34.6048 0.0000e+00
    846.019    579.000     6.5112     6.5155   3.474735   3.474307     6.4579     6.4623    34.6137    34.6046 0.0000e+00
    846.741    580.000     6.5046     6.5094   3.474146   3.473748     6.4513     6.4561    34.6133    34.6041 0.0000e+00
    847.331    581.000     6.4860     6.4919   3.472458   3.471955     6.4327     6.4385    34.6129    34.6014 0.0000e+00
    847.960    582.000     6.4477     6.4527   3.468730   3.468237     6.3944     6.3994    34.6096    34.5992 0.0000e+00
    849.265    583.000     6.4375     6.4502   3.467654   3.467965     6.3842     6.3968    34.6074    34.5981 0.0000e+00
    850.776    584.000     6.4156     6.4195   3.465508   3.465002     6.3623     6.3662    34.6053    34.5957 0.0000e+00
    851.495    585.000     6.3959     6.4006   3.463667   3.463202     6.3426     6.3473    34.6042    34.5943 0.0000e+00
    852.126    586.000     6.3791     6.3843   3.462052   3.461633     6.3258     6.3309    34.6027    34.5928 0.0000e+00
    852.836    587.000     6.3729     6.3775   3.461452   3.461033     6.3195     6.3241    34.6018    34.5925 0.0000e+00
    854.543    588.000     6.3694     6.3741   3.461141   3.460757     6.3159     6.3206    34.6014    34.5924 0.0000e+00
    856.934    589.000     6.3672     6.3716   3.460972   3.460555     6.3136     6.3180    34.6013    34.5922 0.0000e+00
    857.718    590.000     6.3645     6.3692   3.460765   3.460377     6.3108     6.3155    34.6012    34.5922 0.0000e+00
    858.422    591.000     6.3624     6.3671   3.460626   3.460247     6.3087     6.3134    34.6012    34.5923 0.0000e+00
    859.133    592.000     6.3614     6.3659   3.460568   3.460173     6.3076     6.3121    34.6012    34.5922 0.0000e+00
    859.903    593.000     6.3549     6.3596   3.459963   3.459564     6.3010     6.3057    34.6005    34.5913 0.0000e+00
    860.812    594.000     6.3406     6.3456   3.458600   3.458196     6.2867     6.2917    34.5992    34.5897 0.0000e+00
    862.809    595.000     6.3207     6.3254   3.456703   3.456296     6.2668     6.2715    34.5978    34.5885 0.0000e+00
    864.399    596.000     6.3080     6.3127   3.455504   3.455101     6.2541     6.2588    34.5968    34.5875 0.0000e+00
    865.370    597.000     6.3031     6.3078   3.455069   3.454663     6.2490     6.2537    34.5964    34.5872 0.0000e+00
    866.309    598.000     6.2967     6.3013   3.454500   3.454110     6.2426     6.2472    34.5961    34.5870 0.0000e+00
    867.242    599.000     6.2898     6.2945   3.453895   3.453490     6.2357     6.2403    34.5957    34.5865 0.0000e+00
    869.363    600.000     6.2827     6.2874   3.453255   3.452869     6.2285     6.2332    34.5953    34.5863 0.0000e+00
    870.850    601.000     6.2774     6.2822   3.452811   3.452414     6.2231     6.2279    34.5953    34.5859 0.0000e+00
    871.554    602.000     6.2678     6.2727   3.451931   3.451526     6.2134     6.2183    34.5947    34.5852 0.0000e+00
    872.194    603.000     6.2614     6.2661   3.451367   3.450971     6.2070     6.2117    34.5944    34.5852 0.0000e+00
    872.980    604.000     6.2600     6.2645   3.451256   3.450864     6.2055     6.2100    34.5941    34.5851 0.0000e+00
    874.271    605.000     6.2587     6.2634   3.451180   3.450795     6.2041     6.2088    34.5940    34.5849 0.0000e+00
    875.597    606.000     6.2588     6.2634   3.451245   3.450863     6.2041     6.2087    34.5941    34.5853 0.0000e+00
    877.756    607.000     6.2591     6.2637   3.451324   3.450933     6.2043     6.2090    34.5943    34.5852 0.0000e+00
    879.346    608.000     6.2557     6.2607   3.451073   3.450669     6.2009     6.2059    34.5944    34.5848 0.0000e+00
    880.060    609.000     6.2426     6.2476   3.449850   3.449449     6.1877     6.1927    34.5935    34.5840 0.0000e+00
    880.827    610.000     6.2304     6.2348   3.448676   3.448211     6.1755     6.1799    34.5922    34.5826 0.0000e+00
    881.959    611.000     6.2200     6.2246   3.447666   3.447254     6.1650     6.1696    34.5910    34.5818 0.0000e+00
    883.046    612.000     6.2184     6.2232   3.447567   3.447183     6.1634     6.1681    34.5910    34.5819 0.0000e+00
    883.905    613.000     6.2144     6.2191   3.447210   3.446817     6.1592     6.1639    34.5907    34.5815 0.0000e+00
    885.995    614.000     6.1981     6.2027   3.445657   3.445252     6.1429     6.1475    34.5893    34.5801 0.0000e+00
    889.043    615.000     6.1862     6.1915   3.444565   3.444206     6.1311     6.1363    34.5886    34.5792 0.0000e+00
    889.622    616.000     6.1764     6.1815   3.443667   3.443259     6.1212     6.1263    34.5880    34.5783 0.0000e+00
    890.188    617.000     6.1659     6.1707   3.442681   3.442238     6.1106     6.1154    34.5872    34.5773 0.0000e+00
    890.878    618.000     6.1566     6.1610   3.441761   3.441315     6.1012     6.1057    34.5858    34.5763 0.0000e+00
    892.202    619.000     6.1476     6.1528   3.440888   3.440550     6.0922     6.0974    34.5847    34.5756 0.0000e+00
    893.300    620.000     6.1443     6.1487   3.440614   3.440198     6.0888     6.0932    34.5845    34.5753 0.0000e+00
    894.124    621.000     6.1400     6.1453   3.440233   3.439868     6.0845     6.0897    34.5841    34.5747 0.0000e+00
    896.999    622.000     6.1162     6.1211   3.437939   3.437570     6.0606     6.0656    34.5821    34.5729 0.0000e+00
    898.406    623.000     6.1183     6.1230   3.438220   3.437824     6.0627     6.0674    34.5826    34.5733 0.0000e+00
    898.993    624.000     6.1171     6.1216   3.438133   3.437718     6.0614     6.0659    34.5823    34.5731 0.0000e+00
    899.573    625.000     6.1044     6.1089   3.437005   3.436488     6.0486     6.0532    34.5821    34.5717 0.0000e+00
    900.539    626.000     6.0618     6.0663   3.432874   3.432369     6.0062     6.0107    34.5785    34.5682 0.0000e+00
    901.917    627.000     6.0414     6.0462   3.430927   3.430524     5.9858     5.9906    34.5768    34.5675 0.0000e+00
    902.867    628.000     6.0366     6.0413   3.430511   3.430126     5.9809     5.9856    34.5765    34.5675 0.0000e+00
    903.673    629.000     6.0356     6.0402   3.430467   3.430081     5.9799     5.9844    34.5765    34.5676 0.0000e+00
    906.680    630.000     6.0342     6.0396   3.430402   3.430076     5.9783     5.9837    34.5768    34.5676 0.0000e+00
    907.856    631.000     6.0328     6.0373   3.430305   3.429920     5.9769     5.9813    34.5766    34.5678 0.0000e+00
    908.592    632.000     6.0303     6.0349   3.430115   3.429724     5.9743     5.9788    34.5765    34.5675 0.0000e+00
    909.770    633.000     6.0167     6.0214   3.428847   3.428422     5.9606     5.9654    34.5757    34.5660 0.0000e+00
    910.999    634.000     6.0014     6.0065   3.427430   3.427053     5.9453     5.9504    34.5748    34.5653 0.0000e+00
    911.907    635.000     5.9903     5.9953   3.426404   3.426020     5.9342     5.9392    34.5740    34.5646 0.0000e+00
    912.652    636.000     5.9862     5.9909   3.426044   3.425647     5.9300     5.9347    34.5736    34.5644 0.0000e+00
    913.445    637.000     5.9839     5.9885   3.425872   3.425488     5.9276     5.9323    34.5736    34.5645 0.0000e+00
    915.902    638.000     5.9826     5.9875   3.425794   3.425422     5.9262     5.9312    34.5735    34.5643 0.0000e+00
    917.418    639.000     5.9820     5.9866   3.425781   3.425391     5.9255     5.9301    34.5735    34.5645 0.0000e+00
    918.230    640.000     5.9806     5.9853   3.425709   3.425313     5.9241     5.9288    34.5736    34.5644 0.0000e+00
    919.203    641.000     5.9795     5.9841   3.425626   3.425231     5.9229     5.9274    34.5733    34.5642 0.0000e+00
    920.263    642.000     5.9781     5.9827   3.425536   3.425144     5.9214     5.9260    34.5732    34.5641 0.0000e+00
    921.091    643.000     5.9765     5.9812   3.425453   3.425062     5.9197     5.9244    34.5734    34.5643 0.0000e+00
    921.774    644.000     5.9636     5.9687   3.424299   3.423849     5.9067     5.9119    34.5731    34.5628 0.0000e+00
    922.604    645.000     5.9544     5.9594   3.423427   3.423036     5.8976     5.9025    34.5721    34.5627 0.0000e+00
    926.055    646.000     5.9502     5.9542   3.423040   3.422567     5.8933     5.8972    34.5715    34.5622 0.0000e+00
    927.234    647.000     5.9483     5.9529   3.422919   3.422513     5.8913     5.8959    34.5716    34.5623 0.0000e+00
    927.911    648.000     5.9406     5.9455   3.422241   3.421797     5.8835     5.8884    34.5713    34.5613 0.0000e+00
    928.609    649.000     5.9280     5.9328   3.421076   3.420670     5.8709     5.8757    34.5705    34.5611 0.0000e+00
    929.422    650.000     5.9258     5.9304   3.420881   3.420480     5.8686     5.8732    34.5701    34.5609 0.0000e+00
    930.437    651.000     5.9221     5.9267   3.420563   3.420159     5.8648     5.8695    34.5698    34.5605 0.0000e+00
    931.606    652.000     5.9146     5.9195   3.419895   3.419500     5.8573     5.8621    34.5694    34.5600 0.0000e+00
    932.837    653.000     5.9066     5.9116   3.419174   3.418794     5.8492     5.8542    34.5689    34.5596 0.0000e+00
    934.372    654.000     5.9039     5.9087   3.418960   3.418568     5.8464     5.8512    34.5688    34.5595 0.0000e+00
    936.057    655.000     5.9018     5.9064   3.418793   3.418391     5.8443     5.8488    34.5685    34.5593 0.0000e+00
    937.132    656.000     5.8994     5.9040   3.418646   3.418233     5.8418     5.8464    34.5688    34.5595 0.0000e+00
    937.887    657.000     5.8982     5.9028   3.418541   3.418153     5.8405     5.8451    34.5684    34.5593 0.0000e+00
    938.577    658.000     5.8945     5.8992   3.418267   3.417865     5.8367     5.8415    34.5686    34.5592 0.0000e+00
    939.757    659.000     5.8915     5.8956   3.418011   3.417550     5.8337     5.8377    34.5682    34.5589 0.0000e+00
    941.649    660.000     5.8876     5.8924   3.417672   3.417279     5.8297     5.8345    34.5679    34.5586 0.0000e+00
    942.375    661.000     5.8828     5.8876   3.417287   3.416885     5.8248     5.8296    34.5679    34.5585 0.0000e+00
    942.947    662.000     5.8783     5.8832   3.416904   3.416496     5.8202     5.8251    34.5677    34.5581 0.0000e+00
    943.483    663.000     5.8740     5.8788   3.416538   3.416111     5.8159     5.8206    34.5674    34.5578 0.0000e+00
    945.438    664.000     5.8698     5.8740   3.416138   3.415696     5.8116     5.8158    34.5668    34.5575 0.0000e+00
    947.214    665.000     5.8657     5.8705   3.415802   3.415405     5.8074     5.8122    34.5666    34.5573 0.0000e+00
    947.808    666.000     5.8622     5.8671   3.415545   3.415143     5.8039     5.8088    34.5668    34.5573 0.0000e+00
    948.354    667.000     5.8516     5.8566   3.414624   3.414182     5.7932     5.7982    34.5667    34.5566 0.0000e+00
    949.265    668.000     5.8475     5.8522   3.414238   3.413825     5.7891     5.7937    34.5660    34.5566 0.0000e+00
    951.232    669.000     5.8427     5.8453   3.413825   3.413178     5.7842     5.7868    34.5658    34.5558 0.0000e+00
    951.978    670.000     5.8379     5.8425   3.413410   3.413022     5.7793     5.7839    34.5655    34.5565 0.0000e+00
    952.582    671.000     5.8359     5.8408   3.413311   3.412895     5.7772     5.7821    34.5660    34.5563 0.0000e+00
    953.127    672.000     5.8261     5.8312   3.412458   3.412030     5.7674     5.7725    34.5658    34.5558 0.0000e+00
    953.904    673.000     5.8190     5.8242   3.411808   3.411430     5.7602     5.7654    34.5652    34.5557 0.0000e+00
    955.345    674.000     5.8144     5.8194   3.411392   3.411016     5.7556     5.7606    34.5647    34.5553 0.0000e+00
    956.361    675.000     5.8116     5.8165   3.411174   3.410794     5.7527     5.7575    34.5646    34.5554 0.0000e+00
    957.178    676.000     5.8111     5.8156   3.411165   3.410779     5.7521     5.7566    34.5645    34.5555 0.0000e+00
    958.930    677.000     5.8103     5.8154   3.411143   3.410783     5.7512     5.7563    34.5645    34.5553 0.0000e+00
    960.426    678.000     5.8104     5.8150   3.411214   3.410818     5.7513     5.7558    34.5647    34.5556 0.0000e+00
    961.012    679.000     5.8097     5.8146   3.411194   3.410800     5.7505     5.7553    34.5647    34.5554 0.0000e+00
    961.498    680.000     5.8078     5.8128   3.411061   3.410672     5.7485     5.7534    34.5647    34.5553 0.0000e+00
    961.964    681.000     5.7942     5.7999   3.409875   3.409415     5.7348     5.7405    34.5647    34.5537 0.0000e+00
    963.217    682.000     5.7681     5.7803   3.407412   3.407623     5.7087     5.7210    34.5630    34.5529 0.0000e+00
    965.338    683.000     5.7370     5.7425   3.404513   3.404176     5.6777     5.6832    34.5614    34.5520 0.0000e+00
    965.982    684.000     5.7295     5.7355   3.403929   3.403535     5.6702     5.6761    34.5620    34.5514 0.0000e+00
    966.633    685.000     5.7199     5.7244   3.403056   3.402632     5.6606     5.6650    34.5613    34.5520 0.0000e+00
    967.575    686.000     5.7173     5.7215   3.402851   3.402406     5.6579     5.6621    34.5612    34.5519 0.0000e+00
    969.001    687.000     5.7170     5.7212   3.402860   3.402415     5.6574     5.6616    34.5611    34.5518 0.0000e+00
    970.166    688.000     5.7142     5.7198   3.402677   3.402335     5.6546     5.6602    34.5614    34.5519 0.0000e+00
    971.589    689.000     5.7122     5.7176   3.402534   3.402195     5.6526     5.6580    34.5613    34.5520 0.0000e+00
    973.172    690.000     5.7126     5.7172   3.402618   3.402214     5.6528     5.6574    34.5614    34.5521 0.0000e+00
    974.295    691.000     5.7099     5.7142   3.402417   3.401979     5.6501     5.6543    34.5614    34.5521 0.0000e+00
    975.187    692.000     5.7053     5.7092   3.402045   3.401564     5.6454     5.6493    34.5614    34.5520 0.0000e+00
    975.970    693.000     5.7036     5.7081   3.401944   3.401529     5.6436     5.6481    34.5614    34.5522 0.0000e+00
    976.695    694.000     5.7022     5.7070   3.401853   3.401466     5.6421     5.6469    34.5614    34.5521 0.0000e+00
    977.464    695.000     5.6971     5.7023   3.401406   3.401033     5.6370     5.6421    34.5610    34.5515 0.0000e+00
    979.203    696.000     5.6904     5.6944   3.400835   3.400359     5.6302     5.6342    34.5609    34.5514 0.0000e+00
    981.569    697.000     5.6868     5.6915   3.400535   3.400126     5.6266     5.6312    34.5606    34.5513 0.0000e+00
    982.726    698.000     5.6843     5.6885   3.400348   3.399898     5.6239     5.6282    34.5606    34.5512 0.0000e+00
    983.467    699.000     5.6741     5.6788   3.399459   3.398964     5.6137     5.6185    34.5605    34.5500 0.0000e+00
    984.086    700.000     5.6551     5.6601   3.397690   3.397232     5.5947     5.5997    34.5593    34.5490 0.0000e+00
    984.749    701.000     5.6406     5.6452   3.396340   3.395874     5.5802     5.5848    34.5583    34.5483 0.0000e+00
    985.662    702.000     5.6350     5.6384   3.395807   3.395255     5.5746     5.5779    34.5575    34.5478 0.0000e+00
    986.849    703.000     5.6244     5.6285   3.394812   3.394327     5.5639     5.5681    34.5565    34.5468 0.0000e+00
    988.222    704.000     5.6175     5.6220   3.394207   3.393779     5.5570     5.5615    34.5563    34.5468 0.0000e+00
    989.429    705.000     5.6139     5.6187   3.393915   3.393506     5.5533     5.5581    34.5561    34.5466 0.0000e+00
    991.268    706.000     5.6122     5.6171   3.393796   3.393405     5.5515     5.5564    34.5560    34.5466 0.0000e+00
    992.568    707.000     5.6111     5.6160   3.393769   3.393384     5.5503     5.5553    34.5564    34.5469 0.0000e+00
    993.193    708.000     5.6009     5.6062   3.392911   3.392494     5.5401     5.5454    34.5565    34.5464 0.0000e+00
    993.734    709.000     5.5935     5.5986   3.392335   3.391929     5.5326     5.5377    34.5571    34.5473 0.0000e+00
    994.275    710.000     5.5770     5.5823   3.390878   3.390408     5.5162     5.5214    34.5568    34.5461 0.0000e+00
    995.067    711.000     5.5692     5.5741   3.390141   3.389734     5.5083     5.5132    34.5560    34.5463 0.0000e+00
    996.852    712.000     5.5683     5.5716   3.390055   3.389527     5.5073     5.5106    34.5554    34.5461 0.0000e+00
    998.203    713.000     5.5641     5.5690   3.389716   3.389332     5.5031     5.5079    34.5554    34.5461 0.0000e+00
    999.198    714.000     5.5579     5.5627   3.389189   3.388777     5.4968     5.5016    34.5552    34.5456 0.0000e+00
   1000.315    715.000     5.5539     5.5587   3.388871   3.388468     5.4927     5.4976    34.5552    34.5457 0.0000e+00
   1001.286    716.000     5.5508     5.5556   3.388649   3.388256     5.4896     5.4943    34.5553    34.5461 0.0000e+00
   1002.078    717.000     5.5470     5.5519   3.388352   3.387958     5.4857     5.4906    34.5554    34.5459 0.0000e+00
   1002.963    718.000     5.5354     5.5402   3.387296   3.386883     5.4740     5.4788    34.5548    34.5452 0.0000e+00
   1004.197    719.000     5.5047     5.5098   3.384466   3.384016     5.4435     5.4485    34.5534    34.5431 0.0000e+00
   1005.326    720.000     5.4831     5.4881   3.382483   3.382064     5.4218     5.4269    34.5526    34.5426 0.0000e+00
   1006.158    721.000     5.4715     5.4763   3.381436   3.381018     5.4102     5.4151    34.5520    34.5423 0.0000e+00
   1007.026    722.000     5.4631     5.4678   3.380682   3.380266     5.4017     5.4065    34.5516    34.5419 0.0000e+00
   1008.392    723.000     5.4513     5.4564   3.379618   3.379215     5.3900     5.3950    34.5510    34.5412 0.0000e+00
   1009.534    724.000     5.4411     5.4461   3.378726   3.378314     5.3797     5.3847    34.5508    34.5410 0.0000e+00
   1010.300    725.000     5.4174     5.4225   3.376636   3.376202     5.3560     5.3611    34.5508    34.5406 0.0000e+00
   1011.066    726.000     5.4122     5.4170   3.376200   3.375812     5.3508     5.3556    34.5506    34.5412 0.0000e+00
   1013.188    727.000     5.4119     5.4161   3.376216   3.375775     5.3504     5.3546    34.5506    34.5413 0.0000e+00
   1014.631    728.000     5.4106     5.4155   3.376182   3.375795     5.3490     5.3539    34.5510    34.5416 0.0000e+00
   1015.206    729.000     5.4112     5.4160   3.376286   3.375904     5.3495     5.3543    34.5511    34.5419 0.0000e+00
   1015.711    730.000     5.4109     5.4158   3.376311   3.375936     5.3491     5.3541    34.5512    34.5419 0.0000e+00
   1016.262    731.000     5.4110     5.4158   3.376406   3.376015     5.3492     5.3540    34.5517    34.5423 0.0000e+00
   1018.108    732.000     5.4103     5.4153   3.376377   3.375997     5.3484     5.3534    34.5516    34.5421 0.0000e+00
   1019.670    733.000     5.4019     5.4069   3.375682   3.375279     5.3399     5.3450    34.5518    34.5420 0.0000e+00
   1020.464    734.000     5.3702     5.3755   3.372871   3.372395     5.3083     5.3136    34.5517    34.5409 0.0000e+00
   1021.385    735.000     5.3565     5.3614   3.371639   3.371247     5.2946     5.2995    34.5511    34.5417 0.0000e+00
   1022.731    736.000     5.3549     5.3597   3.371526   3.371139     5.2929     5.2977    34.5510    34.5417 0.0000e+00
   1023.813    737.000     5.3543     5.3591   3.371535   3.371145     5.2923     5.2971    34.5512    34.5419 0.0000e+00
   1024.662    738.000     5.3536     5.3584   3.371527   3.371138     5.2914     5.2962    34.5514    34.5420 0.0000e+00
   1025.552    739.000     5.3522     5.3570   3.371451   3.371060     5.2900     5.2947    34.5515    34.5421 0.0000e+00
   1026.665    740.000     5.3498     5.3547   3.371306   3.370908     5.2875     5.2924    34.5517    34.5422 0.0000e+00
   1027.736    741.000     5.3484     5.3533   3.371248   3.370856     5.2860     5.2909    34.5520    34.5425 0.0000e+00
   1028.809    742.000     5.3468     5.3517   3.371141   3.370759     5.2844     5.2892    34.5519    34.5426 0.0000e+00
   1030.542    743.000     5.3445     5.3494   3.370975   3.370589     5.2819     5.2869    34.5519    34.5425 0.0000e+00
   1032.441    744.000     5.3428     5.3478   3.370869   3.370480     5.2802     5.2852    34.5519    34.5424 0.0000e+00
   1033.440    745.000     5.3402     5.3452   3.370686   3.370291     5.2776     5.2825    34.5520    34.5424 0.0000e+00
   1034.130    746.000     5.3371     5.3421   3.370446   3.370044     5.2743     5.2794    34.5520    34.5422 0.0000e+00
   1034.732    747.000     5.3329     5.3379   3.370131   3.369718     5.2701     5.2751    34.5521    34.5423 0.0000e+00
   1035.387    748.000     5.3262     5.3311   3.369554   3.369139     5.2633     5.2682    34.5520    34.5422 0.0000e+00
   1036.395    749.000     5.3182     5.3202   3.368866   3.368191     5.2552     5.2572    34.5518    34.5421 0.0000e+00
   1037.812    750.000     5.3040     5.3072   3.367648   3.367088     5.2411     5.2442    34.5519    34.5423 0.0000e+00
   1038.887    751.000     5.2914     5.2964   3.366566   3.366160     5.2285     5.2334    34.5520    34.5423 0.0000e+00
   1040.596    752.000     5.2859     5.2908   3.366120   3.365718     5.2229     5.2278    34.5521    34.5425 0.0000e+00
   1042.349    753.000     5.2734     5.2786   3.365026   3.364639     5.2104     5.2156    34.5519    34.5421 0.0000e+00
   1043.796    754.000     5.2654     5.2705   3.364330   3.363945     5.2023     5.2074    34.5517    34.5420 0.0000e+00
   1044.669    755.000     5.2527     5.2580   3.363263   3.362858     5.1896     5.1949    34.5520    34.5419 0.0000e+00
   1045.232    756.000     5.2468     5.2520   3.362791   3.362403     5.1837     5.1888    34.5521    34.5424 0.0000e+00
   1045.701    757.000     5.2399     5.2451   3.362239   3.361794     5.1767     5.1819    34.5524    34.5420 0.0000e+00
   1046.181    758.000     5.2321     5.2371   3.361559   3.361138     5.1689     5.1738    34.5522    34.5422 0.0000e+00
   1048.590    759.000     5.2262     5.2306   3.361031   3.360585     5.1629     5.1673    34.5517    34.5420 0.0000e+00
   1050.662    760.000     5.2131     5.2181   3.359935   3.359513     5.1498     5.1547    34.5521    34.5422 0.0000e+00
   1051.197    761.000     5.2087     5.2138   3.359587   3.359209     5.1454     5.1505    34.5521    34.5425 0.0000e+00
   1052.971    762.000     5.2097     5.2129   3.359703   3.359157     5.1463     5.1494    34.5519    34.5424 0.0000e+00
   1054.468    763.000     5.1968     5.2020   3.358641   3.358194     5.1334     5.1385    34.5525    34.5421 0.0000e+00
   1055.124    764.000     5.1745     5.1799   3.356763   3.356319     5.1111     5.1164    34.5534    34.5428 0.0000e+00
   1055.831    765.000     5.1679     5.1727   3.356215   3.355798     5.1044     5.1092    34.5534    34.5437 0.0000e+00
   1057.631    766.000     5.1656     5.1690   3.356023   3.355508     5.1021     5.1054    34.5530    34.5437 0.0000e+00
   1058.779    767.000     5.1518     5.1567   3.354882   3.354492     5.0883     5.0931    34.5536    34.5442 0.0000e+00
   1059.498    768.000     5.1510     5.1561   3.354862   3.354470     5.0874     5.0924    34.5537    34.5440 0.0000e+00
   1061.093    769.000     5.1494     5.1544   3.354753   3.354367     5.0857     5.0907    34.5536    34.5441 0.0000e+00
   1063.613    770.000     5.1451     5.1501   3.354415   3.354013     5.0813     5.0863    34.5537    34.5439 0.0000e+00
   1064.152    771.000     5.1349     5.1401   3.353614   3.353209     5.0710     5.0763    34.5545    34.5445 0.0000e+00
   1064.647    772.000     5.1291     5.1342   3.353168   3.352772     5.0652     5.0703    34.5548    34.5451 0.0000e+00
   1065.112    773.000     5.1278     5.1327   3.353066   3.352669     5.0638     5.0687    34.5545    34.5449 0.0000e+00
   1065.769    774.000     5.1267     5.1317   3.353029   3.352633     5.0627     5.0677    34.5547    34.5450 0.0000e+00
   1068.652    775.000     5.1264     5.1309   3.353029   3.352618     5.0623     5.0668    34.5545    34.5452 0.0000e+00
   1069.706    776.000     5.1245     5.1293   3.352952   3.352542     5.0603     5.0650    34.5551    34.5455 0.0000e+00
   1070.354    777.000     5.1242     5.1288   3.352969   3.352569     5.0599     5.0645    34.5551    34.5458 0.0000e+00
   1070.929    778.000     5.1225     5.1274   3.352896   3.352503     5.0582     5.0630    34.5555    34.5460 0.0000e+00
   1071.557    779.000     5.1216     5.1265   3.352882   3.352489     5.0572     5.0621    34.5558    34.5462 0.0000e+00
   1072.285    780.000     5.1205     5.1253   3.352868   3.352461     5.0560     5.0608    34.5562    34.5466 0.0000e+00
   1073.883    781.000     5.1174     5.1224   3.352654   3.352262     5.0528     5.0578    34.5565    34.5468 0.0000e+00
   1075.419    782.000     5.1141     5.1190   3.352409   3.352006     5.0494     5.0544    34.5566    34.5469 0.0000e+00
   1076.162    783.000     5.1085     5.1137   3.352009   3.351616     5.0438     5.0490    34.5573    34.5474 0.0000e+00
   1076.805    784.000     5.1072     5.1121   3.351935   3.351536     5.0424     5.0473    34.5572    34.5476 0.0000e+00
   1077.838    785.000     5.1033     5.1084   3.351635   3.351256     5.0384     5.0435    34.5574    34.5477 0.0000e+00
   1079.655    786.000     5.0943     5.0994   3.350883   3.350473     5.0294     5.0345    34.5574    34.5475 0.0000e+00
   1080.501    787.000     5.0867     5.0919   3.350261   3.349860     5.0218     5.0269    34.5576    34.5477 0.0000e+00
   1081.074    788.000     5.0790     5.0844   3.349656   3.349247     5.0140     5.0194    34.5581    34.5479 0.0000e+00
   1081.559    789.000     5.0736     5.0788   3.349233   3.348833     5.0085     5.0138    34.5583    34.5483 0.0000e+00
   1082.096    790.000     5.0722     5.0772   3.349154   3.348752     5.0071     5.0120    34.5583    34.5486 0.0000e+00
   1083.164    791.000     5.0707     5.0766   3.349069   3.348756     5.0055     5.0114    34.5583    34.5487 0.0000e+00
   1084.785    792.000     5.0660     5.0710   3.348723   3.348311     5.0008     5.0058    34.5587    34.5488 0.0000e+00
   1085.683    793.000     5.0608     5.0658   3.348358   3.347970     4.9955     5.0005    34.5594    34.5498 0.0000e+00
   1086.443    794.000     5.0588     5.0637   3.348205   3.347796     4.9934     4.9983    34.5592    34.5495 0.0000e+00
   1087.222    795.000     5.0517     5.0566   3.347658   3.347236     4.9862     4.9912    34.5598    34.5498 0.0000e+00
   1088.162    796.000     5.0371     5.0421   3.346492   3.346072     4.9717     4.9766    34.5609    34.5509 0.0000e+00
   1089.127    797.000     5.0256     5.0305   3.345609   3.345201     4.9601     4.9650    34.5621    34.5523 0.0000e+00
   1089.969    798.000     5.0206     5.0255   3.345238   3.344818     4.9550     4.9600    34.5625    34.5525 0.0000e+00
   1090.743    799.000     5.0177     5.0227   3.345052   3.344664     4.9521     4.9571    34.5628    34.5532 0.0000e+00
   1091.498    800.000     5.0138     5.0187   3.344770   3.344353     4.9481     4.9530    34.5631    34.5533 0.0000e+00
   1092.398    801.000     5.0078     5.0128   3.344317   3.343913     4.9421     4.9471    34.5635    34.5537 0.0000e+00
   1093.803    802.000     5.0046     5.0095   3.344090   3.343689     4.9388     4.9437    34.5637    34.5541 0.0000e+00
   1095.113    803.000     5.0016     5.0066   3.343898   3.343504     4.9358     4.9407    34.5641    34.5545 0.0000e+00
   1095.993    804.000     5.0004     5.0053   3.343863   3.343469     4.9345     4.9394    34.5644    34.5548 0.0000e+00
   1096.741    805.000     4.9985     5.0035   3.343768   3.343373     4.9325     4.9375    34.5648    34.5551 0.0000e+00
   1097.631    806.000     4.9962     5.0011   3.343612   3.343211     4.9301     4.9350    34.5649    34.5552 0.0000e+00
   1098.996    807.000     4.9912     4.9964   3.343264   3.342865     4.9251     4.9302    34.5655    34.5556 0.0000e+00
   1100.185    808.000     4.9840     4.9890   3.342736   3.342343     4.9178     4.9228    34.5664    34.5567 0.0000e+00
   1101.054    809.000     4.9825     4.9875   3.342667   3.342280     4.9163     4.9212    34.5666    34.5570 0.0000e+00
   1101.821    810.000     4.9820     4.9870   3.342693   3.342301     4.9157     4.9206    34.5669    34.5573 0.0000e+00
   1102.634    811.000     4.9801     4.9851   3.342579   3.342179     4.9137     4.9187    34.5670    34.5573 0.0000e+00
   1103.823    812.000     4.9770     4.9821   3.342385   3.341976     4.9105     4.9156    34.5675    34.5576 0.0000e+00
   1105.943    813.000     4.9758     4.9808   3.342332   3.341937     4.9092     4.9142    34.5676    34.5580 0.0000e+00
   1106.987    814.000     4.9753     4.9804   3.342351   3.341971     4.9087     4.9137    34.5678    34.5583 0.0000e+00
   1107.730    815.000     4.9727     4.9777   3.342196   3.341798     4.9060     4.9110    34.5683    34.5585 0.0000e+00
   1108.356    816.000     4.9710     4.9759   3.342124   3.341727     4.9042     4.9091    34.5687    34.5591 0.0000e+00
   1108.931    817.000     4.9696     4.9746   3.342082   3.341670     4.9028     4.9077    34.5691    34.5593 0.0000e+00
   1109.504    818.000     4.9670     4.9720   3.341936   3.341523     4.9000     4.9051    34.5697    34.5597 0.0000e+00
   1112.238    819.000     4.9639     4.9686   3.341740   3.341334     4.8969     4.9016    34.5701    34.5606 0.0000e+00
   1114.414    820.000     4.9625     4.9674   3.341709   3.341308     4.8954     4.9003    34.5707    34.5610 0.0000e+00
   1114.899    821.000     4.9596     4.9648   3.341546   3.341155     4.8924     4.8976    34.5713    34.5615 0.0000e+00
   1115.374    822.000     4.9574     4.9624   3.341414   3.341006     4.8901     4.8952    34.5716    34.5617 0.0000e+00
   1115.890    823.000     4.9549     4.9602   3.341268   3.340857     4.8876     4.8929    34.5720    34.5618 0.0000e+00
   1116.895    824.000     4.9509     4.9542   3.340953   3.340409     4.8836     4.8868    34.5719    34.5623 0.0000e+00
   1118.855    825.000     4.9413     4.9408   3.340208   3.339313     4.8739     4.8734    34.5728    34.5630 0.0000e+00
   1119.494    826.000     4.9281     4.9331   3.339204   3.338812     4.8606     4.8657    34.5744    34.5646 0.0000e+00
   1120.094    827.000     4.9274     4.9324   3.339184   3.338796     4.8599     4.8649    34.5743    34.5647 0.0000e+00
   1121.327    828.000     4.9271     4.9322   3.339198   3.338805     4.8595     4.8646    34.5742    34.5645 0.0000e+00
   1123.915    829.000     4.9262     4.9312   3.339177   3.338761     4.8585     4.8635    34.5745    34.5645 0.0000e+00
   1124.634    830.000     4.9220     4.9271   3.338919   3.338526     4.8543     4.8594    34.5753    34.5655 0.0000e+00
   1125.428    831.000     4.9171     4.9222   3.338604   3.338193     4.8493     4.8544    34.5762    34.5663 0.0000e+00
   1126.236    832.000     4.9145     4.9194   3.338436   3.338033     4.8466     4.8515    34.5765    34.5668 0.0000e+00
   1127.022    833.000     4.9122     4.9172   3.338302   3.337908     4.8443     4.8492    34.5768    34.5672 0.0000e+00
   1127.826    834.000     4.9108     4.9158   3.338238   3.337836     4.8428     4.8477    34.5770    34.5673 0.0000e+00
   1130.048    835.000     4.9084     4.9134   3.338083   3.337681     4.8403     4.8453    34.5773    34.5675 0.0000e+00
   1131.510    836.000     4.9067     4.9117   3.338004   3.337608     4.8385     4.8435    34.5776    34.5679 0.0000e+00
   1132.308    837.000     4.9039     4.9088   3.337826   3.337416     4.8357     4.8406    34.5779    34.5681 0.0000e+00
   1133.150    838.000     4.9001     4.9050   3.337584   3.337179     4.8318     4.8367    34.5785    34.5688 0.0000e+00
   1134.257    839.000     4.8925     4.8975   3.337021   3.336616     4.8242     4.8291    34.5793    34.5696 0.0000e+00
   1136.026    840.000     4.8864     4.8915   3.336581   3.336178     4.8180     4.8231    34.5801    34.5702 0.0000e+00
   1137.539    841.000     4.8799     4.8854   3.336116   3.335735     4.8114     4.8170    34.5810    34.5709 0.0000e+00
   1138.459    842.000     4.8674     4.8726   3.335304   3.334890     4.7989     4.8041    34.5840    34.5739 0.0000e+00
   1139.235    843.000     4.8609     4.8659   3.334901   3.334503     4.7924     4.7974    34.5856    34.5758 0.0000e+00
   1140.052    844.000     4.8589     4.8639   3.334784   3.334377     4.7904     4.7953    34.5857    34.5759 0.0000e+00
   1141.388    845.000     4.8556     4.8606   3.334580   3.334178     4.7869     4.7919    34.5863    34.5765 0.0000e+00
   1143.745    846.000     4.8535     4.8586   3.334477   3.334070     4.7847     4.7899    34.5868    34.5768 0.0000e+00
   1144.990    847.000     4.8509     4.8560   3.334376   3.333968     4.7821     4.7872    34.5878    34.5778 0.0000e+00
   1145.922    848.000     4.8480     4.8531   3.334214   3.333821     4.7791     4.7842    34.5885    34.5787 0.0000e+00
   1146.712    849.000     4.8461     4.8511   3.334136   3.333739     4.7772     4.7822    34.5890    34.5792 0.0000e+00
   1147.424    850.000     4.8448     4.8499   3.334084   3.333679     4.7758     4.7808    34.5892    34.5793 0.0000e+00
   1148.153    851.000     4.8437     4.8487   3.334049   3.333629     4.7747     4.7796    34.5894    34.5794 0.0000e+00
   1150.267    852.000     4.8423     4.8473   3.333987   3.333583     4.7731     4.7781    34.5897    34.5799 0.0000e+00
   1153.363    853.000     4.8415     4.8465   3.333983   3.333583     4.7722     4.7772    34.5900    34.5802 0.0000e+00
   1153.893    854.000     4.8405     4.8456   3.333997   3.333601     4.7712     4.7763    34.5906    34.5808 0.0000e+00
   1154.411    855.000     4.8386     4.8438   3.333928   3.333523     4.7692     4.7744    34.5914    34.5813 0.0000e+00
   1154.940    856.000     4.8370     4.8421   3.333835   3.333426     4.7675     4.7726    34.5914    34.5815 0.0000e+00
   1156.204    857.000     4.8359     4.8412   3.333795   3.333409     4.7663     4.7716    34.5916    34.5817 0.0000e+00
   1157.876    858.000     4.8311     4.8355   3.333504   3.333048     4.7615     4.7659    34.5927    34.5829 0.0000e+00
   1158.642    859.000     4.8266     4.8308   3.333268   3.332817     4.7569     4.7611    34.5942    34.5846 0.0000e+00
   1160.262    860.000     4.8229     4.8278   3.333099   3.332686     4.7532     4.7581    34.5955    34.5856 0.0000e+00
   1162.373    861.000     4.8186     4.8239   3.332864   3.332460     4.7488     4.7541    34.5967    34.5866 0.0000e+00
   1163.166    862.000     4.8149     4.8200   3.332627   3.332218     4.7451     4.7501    34.5972    34.5873 0.0000e+00
   1163.967    863.000     4.8109     4.8158   3.332331   3.331902     4.7409     4.7459    34.5975    34.5874 0.0000e+00
   1165.404    864.000     4.8064     4.8115   3.332008   3.331609     4.7364     4.7415    34.5979    34.5880 0.0000e+00
   1167.024    865.000     4.8050     4.8102   3.331966   3.331566     4.7350     4.7401    34.5984    34.5884 0.0000e+00
   1167.786    866.000     4.8021     4.8073   3.331814   3.331419     4.7319     4.7371    34.5991    34.5892 0.0000e+00
   1168.396    867.000     4.7957     4.8012   3.331462   3.331052     4.7256     4.7310    34.6011    34.5908 0.0000e+00
   1168.943    868.000     4.7926     4.7978   3.331281   3.330890     4.7223     4.7275    34.6018    34.5919 0.0000e+00
   1169.513    869.000     4.7927     4.7978   3.331455   3.331072     4.7224     4.7275    34.6031    34.5935 0.0000e+00
   1170.179    870.000     4.7909     4.7968   3.331329   3.330989     4.7205     4.7264    34.6031    34.5930 0.0000e+00
   1172.695    871.000     4.7861     4.7912   3.330933   3.330548     4.7156     4.7208    34.6030    34.5932 0.0000e+00
   1174.536    872.000     4.7868     4.7920   3.331107   3.330713     4.7162     4.7214    34.6038    34.5939 0.0000e+00
   1175.013    873.000     4.7837     4.7891   3.330856   3.330452     4.7131     4.7184    34.6036    34.5933 0.0000e+00
   1176.214    874.000     4.7820     4.7873   3.330725   3.330328     4.7113     4.7166    34.6033    34.5933 0.0000e+00
   1178.458    875.000     4.7798     4.7850   3.330585   3.330166     4.7090     4.7142    34.6035    34.5933 0.0000e+00
   1178.921    876.000     4.7802     4.7852   3.330703   3.330303     4.7094     4.7143    34.6039    34.5941 0.0000e+00
   1179.387    877.000     4.7798     4.7850   3.330713   3.330333     4.7088     4.7141    34.6040    34.5941 0.0000e+00
   1179.888    878.000     4.7792     4.7843   3.330732   3.330337     4.7082     4.7132    34.6043    34.5945 0.0000e+00
   1182.322    879.000     4.7789     4.7842   3.330757   3.330358     4.7078     4.7131    34.6044    34.5943 0.0000e+00
   1183.541    880.000     4.7788     4.7839   3.330837   3.330446     4.7076     4.7127    34.6050    34.5951 0.0000e+00
   1184.082    881.000     4.7791     4.7841   3.330932   3.330533     4.7078     4.7128    34.6052    34.5954 0.0000e+00
   1184.678    882.000     4.7787     4.7837   3.330966   3.330561     4.7073     4.7123    34.6055    34.5956 0.0000e+00
   1186.887    883.000     4.7785     4.7837   3.330993   3.330590     4.7070     4.7122    34.6055    34.5956 0.0000e+00
   1189.634    884.000     4.7780     4.7831   3.331019   3.330625     4.7065     4.7116    34.6058    34.5960 0.0000e+00
   1190.291    885.000     4.7778     4.7830   3.331045   3.330647     4.7062     4.7114    34.6059    34.5959 0.0000e+00
   1190.969    886.000     4.7776     4.7827   3.331070   3.330664     4.7058     4.7109    34.6059    34.5959 0.0000e+00
   1191.763    887.000     4.7766     4.7817   3.331124   3.330719     4.7048     4.7099    34.6070    34.5970 0.0000e+00
   1193.116    888.000     4.7754     4.7806   3.331125   3.330723     4.7035     4.7087    34.6078    34.5978 0.0000e+00
   1195.750    889.000     4.7752     4.7804   3.331164   3.330766     4.7032     4.7084    34.6079    34.5979 0.0000e+00
   1198.222    890.000     4.7748     4.7799   3.331262   3.330854     4.7027     4.7078    34.6090    34.5990 0.0000e+00
   1199.123    891.000     4.7733     4.7785   3.331338   3.330933     4.7011     4.7063    34.6109    34.6009 0.0000e+00
   1199.695    892.000     4.7705     4.7758   3.331285   3.330868     4.6983     4.7035    34.6127    34.6024 0.0000e+00
   1200.192    893.000     4.7674     4.7728   3.331177   3.330781     4.6951     4.7005    34.6142    34.6040 0.0000e+00
   1200.698    894.000     4.7658     4.7711   3.331188   3.330780     4.6935     4.6987    34.6154    34.6053 0.0000e+00
   1203.152    895.000     4.7656     4.7705   3.331225   3.330801     4.6931     4.6980    34.6156    34.6056 0.0000e+00
   1205.060    896.000     4.7639     4.7691   3.331256   3.330858     4.6914     4.6965    34.6172    34.6072 0.0000e+00
   1205.721    897.000     4.7632     4.7684   3.331266   3.330861     4.6906     4.6958    34.6175    34.6075 0.0000e+00
   1207.991    898.000     4.7630     4.7680   3.331275   3.330853     4.6903     4.6953    34.6174    34.6073 0.0000e+00
   1209.284    899.000     4.7625     4.7675   3.331326   3.330915     4.6897     4.6947    34.6180    34.6080 0.0000e+00
   1209.946    900.000     4.7615     4.7666   3.331322   3.330909     4.6886     4.6937    34.6184    34.6084 0.0000e+00
   1210.554    901.000     4.7604     4.7655   3.331313   3.330902     4.6875     4.6925    34.6190    34.6090 0.0000e+00
   1212.221    902.000     4.7592     4.7643   3.331303   3.330892     4.6862     4.6913    34.6196    34.6096 0.0000e+00
   1215.100    903.000     4.7584     4.7635   3.331325   3.330906     4.6853     4.6904    34.6202    34.6101 0.0000e+00
   1215.733    904.000     4.7572     4.7623   3.331317   3.330905     4.6840     4.6891    34.6208    34.6107 0.0000e+00
   1216.391    905.000     4.7560     4.7609   3.331279   3.330867     4.6827     4.6876    34.6211    34.6113 0.0000e+00
   1217.886    906.000     4.7550     4.7601   3.331256   3.330830     4.6816     4.6867    34.6214    34.6113 0.0000e+00
   1219.533    907.000     4.7509     4.7558   3.331097   3.330669     4.6775     4.6824    34.6233    34.6133 0.0000e+00
   1220.253    908.000     4.7451     4.7504   3.330883   3.330460     4.6716     4.6769    34.6264    34.6160 0.0000e+00
   1221.032    909.000     4.7422     4.7473   3.330778   3.330365     4.6687     4.6737    34.6276    34.6176 0.0000e+00
   1223.441    910.000     4.7408     4.7454   3.330760   3.330318     4.6672     4.6718    34.6283    34.6184 0.0000e+00
   1224.860    911.000     4.7406     4.7457   3.330807   3.330405     4.6669     4.6720    34.6286    34.6186 0.0000e+00
   1225.662    912.000     4.7404     4.7455   3.330866   3.330446     4.6666     4.6717    34.6290    34.6188 0.0000e+00
   1226.491    913.000     4.7394     4.7446   3.330840   3.330419     4.6655     4.6707    34.6292    34.6190 0.0000e+00
   1227.577    914.000     4.7378     4.7430   3.330729   3.330323     4.6639     4.6690    34.6291    34.6191 0.0000e+00
   1229.161    915.000     4.7358     4.7411   3.330605   3.330192     4.6618     4.6670    34.6292    34.6190 0.0000e+00
   1231.036    916.000     4.7333     4.7386   3.330423   3.330014     4.6592     4.6645    34.6292    34.6190 0.0000e+00
   1231.966    917.000     4.7313     4.7365   3.330335   3.329933     4.6572     4.6623    34.6297    34.6198 0.0000e+00
   1232.643    918.000     4.7300     4.7352   3.330331   3.329932     4.6557     4.6609    34.6306    34.6206 0.0000e+00
   1233.345    919.000     4.7286     4.7338   3.330309   3.329909     4.6543     4.6594    34.6313    34.6213 0.0000e+00
   1235.904    920.000     4.7284     4.7334   3.330339   3.329915     4.6540     4.6590    34.6313    34.6212 0.0000e+00
   1237.463    921.000     4.7283     4.7334   3.330404   3.329989     4.6538     4.6588    34.6317    34.6217 0.0000e+00
   1238.379    922.000     4.7276     4.7328   3.330436   3.330028     4.6531     4.6583    34.6322    34.6221 0.0000e+00
   1239.551    923.000     4.7277     4.7330   3.330487   3.330085     4.6530     4.6583    34.6323    34.6221 0.0000e+00
   1240.727    924.000     4.7270     4.7323   3.330625   3.330212     4.6522     4.6575    34.6341    34.6238 0.0000e+00
   1242.006    925.000     4.7303     4.7355   3.331407   3.330996     4.6555     4.6607    34.6392    34.6291 0.0000e+00
   1243.719    926.000     4.7327     4.7380   3.331820   3.331409     4.6577     4.6630    34.6411    34.6308 0.0000e+00
   1244.771    927.000     4.7315     4.7368   3.331755   3.331343     4.6565     4.6617    34.6410    34.6308 0.0000e+00
   1245.695    928.000     4.7314     4.7365   3.331804   3.331393     4.6563     4.6614    34.6412    34.6311 0.0000e+00
   1246.816    929.000     4.7304     4.7356   3.331783   3.331366     4.6552     4.6604    34.6414    34.6312 0.0000e+00
   1248.353    930.000     4.7297     4.7350   3.331813   3.331406     4.6544     4.6597    34.6420    34.6319 0.0000e+00
   1250.693    931.000     4.7294     4.7348   3.331865   3.331440     4.6541     4.6593    34.6424    34.6320 0.0000e+00
   1251.501    932.000     4.7283     4.7334   3.331800   3.331381     4.6528     4.6579    34.6424    34.6322 0.0000e+00
   1252.172    933.000     4.7280     4.7332   3.331862   3.331449     4.6524     4.6577    34.6429    34.6327 0.0000e+00
   1252.838    934.000     4.7281     4.7334   3.331975   3.331575     4.6525     4.6577    34.6436    34.6335 0.0000e+00
   1253.673    935.000     4.7265     4.7317   3.331871   3.331449     4.6507     4.6559    34.6436    34.6333 0.0000e+00
   1256.164    936.000     4.7258     4.7311   3.331860   3.331450     4.6500     4.6552    34.6436    34.6334 0.0000e+00
   1257.862    937.000     4.7258     4.7311   3.331951   3.331542     4.6499     4.6552    34.6442    34.6340 0.0000e+00
   1258.534    938.000     4.7246     4.7299   3.331924   3.331497     4.6486     4.6539    34.6446    34.6342 0.0000e+00
   1259.123    939.000     4.7217     4.7271   3.331691   3.331285     4.6457     4.6510    34.6444    34.6341 0.0000e+00
   1259.717    940.000     4.7206     4.7260   3.331665   3.331252     4.6445     4.6499    34.6448    34.6344 0.0000e+00
   1260.608    941.000     4.7197     4.7250   3.331661   3.331253     4.6435     4.6488    34.6451    34.6349 0.0000e+00
   1262.604    942.000     4.7198     4.7250   3.331733   3.331317     4.6435     4.6487    34.6454    34.6352 0.0000e+00
   1263.803    943.000     4.7194     4.7246   3.331786   3.331375     4.6430     4.6482    34.6460    34.6358 0.0000e+00
   1265.291    944.000     4.7197     4.7250   3.331965   3.331550     4.6432     4.6485    34.6472    34.6369 0.0000e+00
   1266.774    945.000     4.7191     4.7242   3.332011   3.331583     4.6426     4.6477    34.6478    34.6376 0.0000e+00
   1267.520    946.000     4.7208     4.7259   3.332285   3.331877     4.6441     4.6493    34.6488    34.6387 0.0000e+00
   1268.125    947.000     4.7233     4.7284   3.332589   3.332188     4.6465     4.6516    34.6492    34.6393 0.0000e+00
   1268.746    948.000     4.7258     4.7312   3.332949   3.332555     4.6489     4.6543    34.6503    34.6401 0.0000e+00
   1270.673    949.000     4.7300     4.7351   3.333443   3.333009     4.6530     4.6581    34.6511    34.6409 0.0000e+00
   1272.630    950.000     4.7356     4.7411   3.334114   3.333732     4.6585     4.6639    34.6526    34.6425 0.0000e+00
   1273.401    951.000     4.7402     4.7455   3.334637   3.334245     4.6630     4.6682    34.6534    34.6434 0.0000e+00
   1274.087    952.000     4.7476     4.7526   3.335454   3.335064     4.6702     4.6752    34.6547    34.6450 0.0000e+00
   1274.830    953.000     4.7514     4.7563   3.335931   3.335504     4.6739     4.6788    34.6558    34.6457 0.0000e+00
   1275.604    954.000     4.7512     4.7567   3.335978   3.335562     4.6736     4.6790    34.6561    34.6456 0.0000e+00
   1276.574    955.000     4.7503     4.7556   3.335926   3.335517     4.6726     4.6779    34.6559    34.6456 0.0000e+00
   1280.514    956.000     4.7493     4.7543   3.335859   3.335397     4.6716     4.6765    34.6556    34.6451 0.0000e+00
   1281.539    957.000     4.7456     4.7510   3.335531   3.335118     4.6678     4.6732    34.6551    34.6448 0.0000e+00
   1282.149    958.000     4.7409     4.7464   3.335134   3.334708     4.6631     4.6685    34.6549    34.6444 0.0000e+00
   1282.692    959.000     4.7439     4.7492   3.335529   3.335155     4.6660     4.6712    34.6558    34.6461 0.0000e+00
   1283.215    960.000     4.7500     4.7552   3.336294   3.335895     4.6719     4.6770    34.6579    34.6480 0.0000e+00
   1283.823    961.000     4.7514     4.7566   3.336537   3.336129     4.6732     4.6783    34.6588    34.6488 0.0000e+00
   1284.723    962.000     4.7516     4.7570   3.336641   3.336224     4.6733     4.6786    34.6593    34.6489 0.0000e+00
   1286.211    963.000     4.7485     4.7538   3.336393   3.335966     4.6701     4.6754    34.6591    34.6487 0.0000e+00
   1289.041    964.000     4.7445     4.7499   3.336078   3.335658     4.6661     4.6714    34.6591    34.6487 0.0000e+00
   1291.138    965.000     4.7407     4.7487   3.336004   3.335579     4.6622     4.6701    34.6617    34.6486 0.0000e+00
   1291.758    966.000     4.3749     4.7450   3.334831   3.335303     4.2984     4.6664    35.0292    34.6486 0.0000e+00
   1292.318    967.000    -0.1451     4.7412   3.325451   3.335019    -0.2007     4.6625    40.2138    34.6489 0.0000e+00
   1292.908    968.000   -14.7062     4.7286   3.301193   3.334052   -14.2717     4.6500    68.6005    34.6501 0.0000e+00
   1293.587    969.000     4.8179     4.7216   3.350830   3.333567     4.7362     4.6430    34.7510    34.6513 0.0000e+00
   1294.312    970.000     4.7111     4.7171   3.348736   3.333373     4.6321     4.6383    34.8372    34.6533 0.0000e+00
   1295.296    971.000     4.7078     4.7134   3.346706   3.333272     4.6288     4.6346    34.8167    34.6553 0.0000e+00
   1298.628    972.000     4.7072     4.7128   3.341617   3.333323     4.6282     4.6339    34.7578    34.6561 0.0000e+00
   1299.794    973.000     4.7082     4.7139   3.340751   3.333539     4.6291     4.6349    34.7463    34.6570 0.0000e+00
   1300.597    974.000     4.7087     4.7143   3.340133   3.333638     4.6296     4.6352    34.7381    34.6572 0.0000e+00
   1301.528    975.000     4.7093     4.7149   3.339529   3.333791     4.6300     4.6357    34.7300    34.6578 0.0000e+00
   1302.586    976.000     4.7100     4.7154   3.338942   3.333940     4.6306     4.6361    34.7220    34.6586 0.0000e+00
   1303.403    977.000    -5.8982     4.7157   3.315324   3.334124    -5.9516     4.6363    48.7891    34.6599 0.0000e+00
   1304.054    978.000   -20.5277     4.7159   3.293909   3.334424   -20.5543     4.6365    88.9406    34.6626 0.0000e+00
   1304.706    979.000   -12.8455     4.7158   3.327671   3.335621   -12.8818     4.6362    64.0201    34.6761 0.0000e+00
   1307.048    980.000     6.0390     4.7159   3.370050   3.334019     5.9580     4.6362    33.7300    34.6570 0.0000e+00
   1309.225    981.000     1.9029     4.7163   3.357094   3.334477     1.8382     4.6366    38.0616    34.6613 0.0000e+00
   1309.686    982.000    -7.7971     4.7166   3.334462   3.334755    -7.8429     4.6368    52.6434    34.6638 0.0000e+00
   1310.128    983.000    27.6694     4.7168   3.437274   3.334897    27.3546     4.6369    20.1979    34.6647 0.0000e+00
   1312.046    984.000    10.6719     4.7175   3.416687   3.334774    10.5331     4.6375    30.0656    34.6621 0.0000e+00
   1314.249    985.000     0.7740     4.7182   3.411067   3.335293     0.7357     4.6381    40.1519    34.6669 0.0000e+00
   1314.693    986.000     1.2250     4.7181   3.446102   3.335732     0.8495     4.6379    40.0327    34.6715 0.0000e+00
   1315.162    987.000    29.6521     4.7184   3.594435   3.335171    29.3735     4.6381    20.3690    34.6643 0.0000e+00
   1315.664    988.000    -1.6783     4.7186   3.548332   3.335306    -1.7426     4.6382    45.4642    34.6651 0.0000e+00
   1316.397    989.000     4.0463     4.7190   3.541967   3.335323     3.9641     4.6385    37.8228    34.6644 0.0000e+00
   1318.559    990.000     0.9936     4.7203   3.493921   3.335634     0.8975     4.6398    40.9515    34.6661 0.0000e+00
   1319.402    991.000     3.6411     4.7207   3.475059   3.335809     3.5639     4.6400    37.4830    34.6673 0.0000e+00
   1320.189    992.000     1.0686     4.7202   3.465485   3.335792     1.0007     4.6394    40.4812    34.6671 0.0000e+00
   1321.250    993.000     4.5737     4.7201   3.456464   3.335803     4.4912     4.6393    36.2241    34.6668 0.0000e+00
   1322.714    994.000     4.7179     4.7236   3.434715   3.336285     4.6351     4.6427    35.8150    34.6683 0.0000e+00
   1324.454    995.000     4.7252     4.7315   3.413670   3.337239     4.6427     4.6504    35.5623    34.6706 0.0000e+00
   1325.352    996.000     4.4075     4.7364   3.409225   3.337970     4.3223     4.6552    35.8497    34.6735 0.0000e+00
   1325.934    997.000   -22.9845     4.7473   3.358369   3.339453   -23.0630     4.6659   102.4913    34.6788 0.0000e+00
   1326.428    998.000    48.2096     4.7534   3.611011   3.339706    47.7583     4.6719    14.6565    34.6750 0.0000e+00
   1326.928    999.000    98.0594     4.7439   3.778288   3.338360    97.1717     4.6623     8.4699    34.6688 0.0000e+00
   1327.629   1000.000    53.1710     4.7343   3.592688   3.337933    52.6700     4.6528    13.5008    34.6732 0.0000e+00
   1330.600   1001.000    -7.3098     4.7292   3.376060   3.337933    -7.2891     4.6476    52.4037    34.6780 0.0000e+00
   1331.718   1002.000   -17.3948     4.7223   3.357031   3.337389   -17.9297     4.6406    78.5884    34.6784 0.0000e+00
   1332.435   1003.000    12.4177     4.7206   3.416639   3.337509    12.2546     4.6388    28.6903    34.6811 0.0000e+00
   1333.156   1004.000     1.6885     4.7181   3.447226   3.336883     1.6193     4.6363    39.4541    34.6759 0.0000e+00
   1333.949   1005.000     3.3362     4.7152   3.435849   3.336671     3.2601     4.6334    37.3498    34.6759 0.0000e+00
   1334.727   1006.000     4.7036     4.7130   3.434060   3.336405     4.6199     4.6311    35.8165    34.6746 0.0000e+00
   1335.572   1007.000     4.7056     4.7112   3.422869   3.336255     4.6220     4.6292    35.6839    34.6743 0.0000e+00
   1337.336   1008.000     4.7071     4.7127   3.404890   3.336642     4.6237     4.6306    35.4730    34.6767 0.0000e+00
   1340.058   1009.000     4.7061     4.7118   3.382271   3.336735     4.6230     4.6296    35.2114    34.6783 0.0000e+00
   1340.851   1010.000     2.2747     4.7086   3.371671   3.336631     2.2011     4.6264    37.7876    34.6798 0.0000e+00
   1341.529   1011.000    48.6645     4.7087   3.553716   3.336514    48.1001     4.6264    14.2963    34.6779 0.0000e+00
   1342.201   1012.000    98.4519     4.7091   3.714574   3.336032    97.5481     4.6267     8.2849    34.6714 0.0000e+00
   1347.139   1013.000    39.1868     4.7100   3.560892   3.337139    38.4509     4.6275    16.8033    34.6828 0.0000e+00
   1361.089   1014.000   -19.3419     4.7171   3.531679   3.337788   -18.9677     4.6344    91.0774    34.6825 0.0000e+00
